# Obtained using Skycalc tool from ESO webpage
# Not including telescope emissivity
Wave[nm] Radiance[photons/s/m**2/micron/arsec**2]
870 346.227
870.120943 482.935
870.241902 532.747
870.362878 493.408
870.483871 396.765
870.604881 358.171
870.725907 354.736
870.846951 445.497
870.968011 583.213
871.089088 549.688
871.210182 398.698
871.331293 338.038
871.45242 330.05
871.573565 313.099
871.694726 305.031
871.815904 313.184
871.937099 327.431
872.058311 322.626
872.17954 309.192
872.300785 303.789
872.422047 303.251
872.543327 303.498
872.664623 308.923
872.785936 347.537
872.907265 391.653
873.028612 347.727
873.149976 309.302
873.271356 304.07
873.392753 303.997
873.514168 304.09
873.635599 304.277
873.757046 307.727
873.878511 334.114
873.999993 382.492
874.121492 405.985
874.243007 401.756
874.364539 364.588
874.486089 352.152
874.607655 326.484
874.729238 308.83
874.850838 314.319
874.972455 328.269
875.094088 355.61
875.215739 389.267
875.337407 346.922
875.459091 310.786
875.580793 305.899
875.702511 309.407
875.824246 421.182
875.945998 1229.91
876.067767 2214.7
876.189553 2015.44
876.311356 4190.15
876.433176 6664.44
876.555013 3502.79
876.676867 937.303
876.798738 1842.26
876.920625 5814.14
877.04253 8104.45
877.164451 3992.61
877.28639 955.306
877.408345 403.17
877.530318 326.078
877.652307 540.923
877.774313 2347.57
877.896336 6944.67
878.018377 8885.89
878.140434 4014.36
878.262508 752.863
878.384599 321.586
878.506707 308.054
878.628832 308.056
878.750974 308.134
878.873133 308.667
878.995309 327.324
879.117502 596.807
879.239712 1976.12
879.361939 3324.12
879.484183 1776.49
879.606444 491.053
879.728722 314.63
879.851017 309.088
879.973329 309.139
880.095658 309.441
880.218004 312.578
880.340367 325.945
880.462747 337.422
880.585144 322.774
880.707558 311.245
880.829989 310.213
880.952437 323.037
881.074902 427.741
881.197384 646.021
881.319883 678.939
881.442399 456.591
881.564933 327.387
881.687483 310.984
881.81005 310.572
881.932634 310.644
882.055236 310.632
882.177854 310.517
882.300489 310.581
882.423142 315.042
882.545811 471.483
882.668498 2413.42
882.791202 11069.8
882.913922 18823.8
883.03666 9258.91
883.159415 1591.32
883.282187 746.947
883.404976 1088.5
883.527782 1569.4
883.650605 1553.67
883.773445 4023.56
883.896302 7401.28
884.019176 3958.4
884.142068 823.362
884.264976 335.322
884.387902 313.406
884.510844 326.912
884.633804 426.767
884.756781 543.365
884.879775 452.404
885.002786 508.156
885.125814 1441.67
885.248859 2529.53
885.371922 1420.92
885.495001 458.265
885.618098 331.227
885.741211 320.344
885.864342 314.338
885.98749 315.146
886.110655 329.139
886.233837 411.862
886.357036 569.652
886.480253 606.96
886.603486 503.288
886.726737 688.034
886.850005 2853.5
886.97329 5377.01
887.096592 2846
887.219911 634.125
887.343247 330.844
887.466601 318.036
887.589971 315.403
887.713359 315.158
887.836764 315.207
887.960186 315.137
888.083625 314.594
888.207082 314.03
888.330555 315.004
888.454046 344.617
888.577554 1208.98
888.701079 7373.17
888.824621 14391.3
888.948181 7396.67
889.071757 1333.43
889.195351 484.81
889.318962 370.083
889.44259 322.867
889.566235 325.342
889.689898 392.65
889.813577 519.499
889.937274 519.1
890.060988 392.604
890.18472 336.505
890.308468 678.324
890.432234 3214.58
890.556017 6152.02
890.679817 3322.99
890.803634 766.301
890.927469 438.689
891.05132 509.124
891.175189 475.159
891.299076 462.555
891.422979 386.684
891.5469 340.365
891.670837 347.737
891.794793 372.302
891.918765 1291.14
892.042754 7935.11
892.166761 15574.4
892.290785 8039.65
892.414826 1360.65
892.538885 412.95
892.662961 399.638
892.787054 427.989
892.911164 562.619
893.035291 634.608
893.159436 498.536
893.283598 375.323
893.407777 347.977
893.531974 367.059
893.656188 400.192
893.780419 423.435
893.904667 421.242
894.028933 383.909
894.153216 374.95
894.277516 641.787
894.401833 2678.76
894.526168 5148.31
894.65052 3010.42
894.774889 797.576
894.899276 353.958
895.02368 326.912
895.148101 321.24
895.272539 316.517
895.396995 313.941
895.521468 311.795
895.645959 334.648
895.770466 1100.59
895.894991 6615.62
896.019534 12915
896.144093 6625.53
896.26867 1126.67
896.393264 352.714
896.517876 318.257
896.642505 324.533
896.767151 328.71
896.891815 321.116
897.016495 337.919
897.141194 383.865
897.265909 483.298
897.390642 574.414
897.515392 446.513
897.64016 355.91
897.764945 348.743
897.889747 364.175
898.014566 418.919
898.139403 424.568
898.264258 431.036
898.389129 540.348
898.514018 519.848
898.638925 481.309
898.763849 536.113
898.88879 628.917
899.013748 1960.06
899.138724 3580.54
899.263717 1952.92
899.388728 661.472
899.513756 652.62
899.638801 490.607
899.763864 344.905
899.888944 327.503
900.014041 340.52
900.139156 734.003
900.264289 3699.75
900.389438 7129.9
900.514605 3720.48
900.63979 722.288
900.764992 319.917
900.890211 309.356
901.015448 303.575
901.140702 310.811
901.265973 311.372
901.391262 303.05
901.516569 311.749
901.641893 318.632
901.767234 301.14
901.892592 277.126
902.017968 297.559
902.143362 329.521
902.268773 403.63
902.394201 474.113
902.519647 380.44
902.64511 315.451
902.770591 305.782
902.896089 323.717
903.021604 387.856
903.147137 435.573
903.272688 412.631
903.398256 377.971
903.523841 344.503
903.649444 331.584
903.775064 434.081
903.900702 1193.17
904.026357 2060.18
904.15203 1192.15
904.27772 431.054
904.403428 326.565
904.529153 353.227
904.654895 398.028
904.780655 368.435
904.906433 441.203
905.032228 1281.33
905.15804 2847.23
905.28387 2808.41
905.409718 1253.29
905.535583 436.801
905.661465 353.729
905.787365 388.341
905.913283 414.847
906.039218 372.717
906.16517 338.392
906.29114 324.743
906.417128 331.83
906.543133 386.372
906.669155 489.562
906.795195 494.757
906.921253 474.342
907.047328 510.66
907.173421 452.298
907.299531 436.519
907.425658 359.28
907.551804 316.298
907.677966 320.971
907.804147 334.581
907.930345 345.625
908.05656 334.18
908.182793 323.448
908.309043 324.054
908.435311 333.041
908.561597 355.18
908.6879 341.751
908.814221 310.136
908.940559 289.924
909.066915 310.471
909.193288 364.484
909.319679 617.207
909.446088 1099.86
909.572514 1162.29
909.698957 662.097
909.825419 381.752
909.951897 355.001
910.078394 358.507
910.204908 383.692
910.331439 773.154
910.457989 1534.61
910.584555 1526.12
910.71114 765.166
910.837742 354.685
910.964361 306.212
911.090998 321.492
911.217653 335.859
911.344326 335.314
911.471015 332.274
911.597723 331.32
911.724448 329.416
911.851191 322.32
911.977952 304.378
912.10473 290.686
912.231525 311.266
912.358339 329.133
912.485169 332.112
912.612018 329.758
912.738884 327.958
912.865768 327.743
912.99267 321.527
913.119589 308.62
913.246525 298.205
913.37348 308.383
913.500452 345.779
913.627442 378.782
913.754449 352.618
913.881474 332.433
914.008517 327.432
914.135577 342.241
914.262655 358.474
914.389751 345.033
914.516864 334.661
914.643995 335.132
914.771144 335.713
914.89831 349.033
915.025494 365.779
915.152696 370.967
915.279915 550.434
915.407152 910.466
915.534407 917.149
915.661679 597.588
915.78897 421.996
915.916277 458.361
916.043603 475.923
916.170946 690.096
916.298307 1044.88
916.425686 998.768
916.553082 578.628
916.680496 359.656
916.807928 334.287
916.935378 329.939
917.062845 324.154
917.19033 326.742
917.317832 329.692
917.445353 325.454
917.572891 314.059
917.700447 304.347
917.82802 311.849
917.955611 316.421
918.083221 324.678
918.210847 331.76
918.338492 332.503
918.466154 332.267
918.593834 323.245
918.721532 313.458
918.849247 325.315
918.976981 335.69
919.104732 337.198
919.2325 335.632
919.360287 332.967
919.488091 330.204
919.615913 327.55
919.743753 318.814
919.871611 321.301
919.999486 333.285
920.127379 343.841
920.25529 351.713
920.383219 346.229
920.511166 341.556
920.63913 344.936
920.767112 348.706
920.895112 341.674
921.023129 344.449
921.151165 361.313
921.279218 363.281
921.407289 347.757
921.535378 342.931
921.663485 380.237
921.791609 607.852
921.919752 868.66
922.047912 600.373
922.17609 370.933
922.304285 341.257
922.432499 369.4
922.56073 603.771
922.68898 997.792
922.817247 928.235
922.945531 543.48
923.073834 361.207
923.202155 337.539
923.330493 336.95
923.458849 337.814
923.587223 335.642
923.715615 333.521
923.844025 335.851
923.972453 334.717
924.100898 330.694
924.229361 334.316
924.357843 338.552
924.486342 338.223
924.614859 334.619
924.743393 329.15
924.871946 329.875
925.000516 337.705
925.129105 340.274
925.257711 335.92
925.386335 332.099
925.514977 335.994
925.643637 339.067
925.772315 340.868
925.901011 342.235
926.029724 341.355
926.158456 336.107
926.287205 330.94
926.415972 333.332
926.544757 338.274
926.67356 342.073
926.802381 342.96
926.93122 342.461
927.060077 342.173
927.188952 340.669
927.317844 340.444
927.446755 337.873
927.575683 333.735
927.70463 335.956
927.833594 337.11
927.962576 326.687
928.091576 310.713
928.220594 314.663
928.34963 330.644
928.478684 336.421
928.607756 330.017
928.736846 317.044
928.865954 320.873
928.99508 330.554
929.124223 331.954
929.253385 330.334
929.382565 326.574
929.511762 326.933
929.640978 324.797
929.770211 318.993
929.899463 316.631
930.028732 307.73
930.158019 308.415
930.287325 296.392
930.416648 303.651
930.545989 452.054
930.675349 1644.34
930.804726 4641.25
930.934121 5817.04
931.063534 3075.96
931.192966 1671.1
931.322415 1774.26
931.451882 5476.48
931.581367 10144.3
931.71087 5190.6
931.840392 944.375
931.969931 501.556
932.099488 484.066
932.229063 473.318
932.358657 1554.87
932.488268 5730.57
932.617897 8877.95
932.747544 4253.01
932.87721 741.079
933.006893 289.943
933.136594 316.834
933.266314 352.837
933.396051 347.121
933.525807 282.503
933.65558 221.906
933.785372 389.323
933.915181 1483.41
934.045009 2699.05
934.174855 1468.04
934.304719 422.873
934.4346 238.304
934.5645 158.185
934.694418 150.179
934.824354 195.763
934.954308 278.748
935.08428 335.099
935.21427 344.596
935.344279 323.998
935.474305 273.197
935.604349 198.192
935.734412 202.781
935.864492 238.245
935.994591 200.086
936.124708 202.094
936.254843 276.395
936.384995 317.323
936.515166 326.095
936.645355 301.414
936.775563 249.403
936.905788 240.355
937.036031 261.316
937.166293 240.627
937.296572 220.966
937.42687 367.02
937.557186 2430.77
937.68752 11886.3
937.817872 20601.8
937.948242 10060.9
938.07863 1453.66
938.209037 269.394
938.339461 256.971
938.469904 581.042
938.600365 958.199
938.730844 648.861
938.861341 385.223
938.991856 398.23
939.12239 376.845
939.252941 343.681
939.383511 330.782
939.514099 335.507
939.644705 356.763
939.775329 477.536
939.905971 616.771
940.036631 478.316
940.16731 500.493
940.298007 1735.46
940.428722 3178.32
940.559455 1751.31
940.690206 502.008
940.820976 333.439
940.951763 326.053
941.082569 317.319
941.213393 283.603
941.344235 270.078
941.475096 305
941.605974 332.15
941.736871 376.393
941.867786 412.923
941.998719 607.868
942.129671 2437.19
942.26064 4601.67
942.391628 2875.09
942.522634 1500.76
942.653658 798.622
942.784701 347.305
942.915761 207.142
943.04684 190.425
943.177937 239.826
943.309053 268.644
943.440186 313.544
943.571338 343.625
943.702508 347.085
943.833696 352.957
943.964903 1099.14
944.096127 6801.88
944.22737 13335.9
944.358631 6759.77
944.489911 1079.19
944.621208 304.779
944.752524 310.124
944.883859 451.472
945.015211 613.441
945.146582 467.062
945.277971 337.673
945.409378 333.294
945.540803 312.006
945.672247 273.356
945.803709 603.049
945.93519 3047.82
946.066688 5837.6
946.198205 3025.16
946.32974 567.196
946.461294 279.114
946.592865 319.902
946.724455 326.46
946.856064 318.77
946.98769 307.522
947.119335 283.791
947.250999 284.269
947.38268 327.177
947.51438 369.011
947.646098 1121.09
947.777834 6775.54
947.909589 13310
948.041362 6886.49
948.173154 1147.13
948.304963 252.169
948.436791 204.662
948.568638 277.841
948.700502 327.166
948.832385 328.829
948.964287 331.67
949.096207 345.652
949.228145 350.031
949.360101 343.17
949.492076 303.217
949.624069 242.215
949.75608 253.623
949.88811 286.839
950.020158 279.308
950.152224 275.76
950.284309 514.822
950.416412 2569.37
950.548534 4999.93
950.680674 2690.29
950.812832 634.851
950.945009 358.298
951.077204 354.163
951.209417 351.39
951.341649 345.318
951.473899 347.817
951.606168 350.564
951.738455 341.866
951.87076 541.019
952.003084 2432.92
952.135426 6214.7
952.267787 6430.63
952.400165 2626.86
952.532563 531.481
952.664979 300.145
952.797413 309.036
952.929865 309.416
953.062336 289.906
953.194826 302.811
953.327333 333.726
953.45986 342.166
953.592404 341.722
953.724967 323.754
953.857549 299.584
953.990149 322.287
954.122767 337.157
954.255404 334.614
954.388059 319.675
954.520733 290.459
954.653425 246.475
954.786135 282.56
954.918864 327.045
955.051612 344.554
955.184378 437.559
955.317162 1193.16
955.449965 2596.3
955.582786 2555.1
955.715626 1136.25
955.848484 389.592
955.981361 286.856
956.114256 316.241
956.24717 349.914
956.380102 344.887
956.513052 321.845
956.646022 504.51
956.779009 2101.1
956.912015 5225.63
957.04504 5384.05
957.178083 2254.68
957.311144 546.57
957.444224 338.359
957.577323 350.175
957.71044 360.296
957.843575 356.042
957.976729 349.648
958.109902 331.819
958.243093 287.558
958.376303 280.574
958.509531 324.151
958.642777 353.224
958.776042 352.84
958.909326 338.647
959.042628 312.807
959.175949 283.74
959.309288 285.581
959.442646 292.439
959.576022 306.874
959.709417 320.804
959.842831 337.323
959.976263 332.345
960.109713 324.768
960.243182 341.419
960.37667 355.404
960.510176 357.34
960.643701 336.401
960.777244 392.56
960.910806 1021.51
961.044386 1746.94
961.177985 1049.08
961.311603 430.254
961.445239 357.941
961.578894 352.543
961.712567 332.269
961.846259 336.681
961.979969 350.731
962.113698 465.434
962.247446 1366.8
962.381212 2401.73
962.514997 1364.04
962.648801 466.207
962.782623 334.125
962.916463 326.667
963.050323 344.916
963.1842 357.878
963.318097 365.04
963.452012 369.535
963.585946 367.848
963.719898 352.694
963.853869 316.035
963.987858 300.403
964.121867 330.218
964.255893 346.352
964.389939 352.031
964.524003 357.742
964.658086 340.092
964.792187 306.881
964.926307 321.552
965.060446 350.845
965.194603 361.872
965.328779 374.333
965.462973 413.416
965.597187 447.44
965.731419 422.332
965.865669 434.941
965.999938 582.824
966.134226 765.454
966.268533 563.701
966.402858 453.673
966.537202 516.822
966.671565 436.538
966.805946 451.705
966.940346 1088.24
967.074764 2113.08
967.209202 1811.05
967.343658 822.071
967.478132 467.849
967.612626 781.931
967.747138 1176.59
967.881669 777.314
968.016218 496.685
968.150786 1050.02
968.285373 2695.13
968.419979 4273.36
968.554603 3808.85
968.689246 1639.05
968.823908 518.415
968.958588 381.057
969.093287 505.497
969.228005 1434.77
969.362742 2493.37
969.497497 1429.35
969.632271 504.407
969.767064 396.293
969.901876 963.097
970.036706 5080.75
970.171555 9785.77
970.306423 5067.56
970.44131 940.14
970.576215 384.77
970.711139 377.004
970.846082 377.321
970.981043 381.645
971.116024 614.636
971.251023 2334.52
971.386041 4298.84
971.521077 2336.89
971.656133 610.097
971.791207 382.619
971.9263 1116.32
972.061412 6387.67
972.196542 12399.7
972.331691 6388.64
972.46686 1122.42
972.602046 381.763
972.737252 359.682
972.872477 370.447
973.00772 374.887
973.142982 373.783
973.278263 371.63
973.413562 380.347
973.548881 424.906
973.684218 504.776
973.819574 749.853
973.954949 2564.62
974.090343 4714.13
974.225756 2550.19
974.361187 649.34
974.496637 381.075
974.632106 437.394
974.767594 608.408
974.903101 623.846
975.038626 459.086
975.174171 361.93
975.309734 365.872
975.445316 374.685
975.580917 366.739
975.716537 361.497
975.852176 356.861
975.987833 348.576
976.123509 360.974
976.259205 373.57
976.394919 366.375
976.530652 355.394
976.666403 362.24
976.802174 370.011
976.937964 376.996
977.073772 379.686
977.209599 381.886
977.345446 383.435
977.481311 380.013
977.617195 374.653
977.753098 375.613
977.889019 376.392
978.02496 374.927
978.160919 372.262
978.296898 373.415
978.432895 366.464
978.568911 362.409
978.704947 374.916
978.841001 387.382
978.977074 644.238
979.113166 3797.78
979.249276 17523.9
979.385406 29565.9
979.521555 14328.8
979.657722 2154.76
979.793909 973.535
979.930114 2103.51
980.066339 6277.1
980.202582 11184.5
980.338844 5745.34
980.475126 1035.68
980.611426 391.861
980.747745 390.079
980.884083 466.028
981.02044 672.788
981.156816 985.83
981.293211 2319.16
981.429625 3936.86
981.566057 2149.36
981.702509 607.027
981.83898 411.763
981.97547 440.616
982.111978 442.878
982.248506 408.393
982.385053 396.166
982.521618 450.152
982.658203 511.07
982.794807 495.267
982.931429 856.937
983.068071 1328.81
983.204732 859.152
983.341411 443.616
983.47811 383.847
983.614827 386.118
983.751564 388.711
983.88832 388.41
984.025094 388.962
984.161888 389.225
984.298701 388.936
984.435532 389.504
984.572383 401.754
984.709253 433.831
984.846141 863.254
984.983049 4058.43
985.119976 7724.27
985.256922 4056.63
985.393887 847.906
985.530871 404.525
985.667874 390.924
985.804896 390.707
985.941937 390.44
986.078997 391.164
986.216076 391.652
986.353174 391.665
986.490292 391.975
986.627428 391.893
986.764583 391.441
986.901758 392.183
987.038951 441.762
987.176164 1893.47
987.313396 12352.7
987.450646 24321.2
987.587916 12382.4
987.725205 1903.38
987.862513 441.35
987.99984 393.182
988.137186 392.244
988.274552 392.667
988.411936 393.423
988.54934 393.999
988.686762 396.343
988.824204 400.974
988.961665 401.184
989.099145 396.679
989.236644 394.468
989.374162 411.749
989.511699 946.016
989.649255 4785.37
989.786831 9166.85
989.924425 4783.14
990.062039 944.921
990.199672 411.917
990.337324 397.704
990.474995 398.724
990.612685 396.688
990.750395 395.454
990.888123 395.425
991.025871 395.282
991.163638 395.395
991.301424 443.296
991.439229 1932.79
991.577053 12692.5
991.714897 24989
991.85276 12692.6
991.990641 1933.41
992.128542 444.3
992.266462 396.48
992.404402 396.499
992.54236 396.765
992.680338 396.622
992.818335 395.686
992.956351 394.712
993.094386 395.827
993.23244 396.845
993.370514 397.204
993.508607 397.686
993.646719 398.142
993.78485 398.189
993.923 398.22
994.06117 414.308
994.199359 917.059
994.337567 4563.39
994.475794 9168.15
994.614041 8739.14
994.752306 12993.5
994.890591 14782.1
995.028895 8695.19
995.167219 3670.51
995.305561 1512.81
995.443923 634.769
995.582304 516.296
995.720704 1704.08
995.859124 7293.31
995.997562 12462.5
996.13602 6947.05
996.274498 6037.08
996.412994 12443.4
996.55151 12207.8
996.690045 4819.55
996.828599 906.467
996.967173 415.515
997.105765 406.741
997.244377 600.403
997.383009 1995.27
997.521659 3587.91
997.660329 1994.5
997.799018 608.539
997.937727 475.264
998.076455 537.856
998.215201 470.41
998.353968 411.452
998.492753 402.48
998.631558 401.528
998.770382 401.616
998.909226 401.817
999.048089 401.929
999.186971 402.018
999.325872 402.174
999.464793 402.033
999.603733 401.773
999.742692 402.262
999.881671 409.203
1000.02067 614.2
1000.15969 2097.1
1000.29872 3797.93
1000.43778 2115.05
1000.57685 630.9
1000.71595 415.469
1000.85506 404.231
1000.9942 408.345
1001.13335 584.722
1001.27252 2855.79
1001.41171 13652.5
1001.55092 26249.8
1001.69015 18311.4
1001.8294 5330.15
1001.96867 894.748
1002.10796 461.96
1002.24727 762.641
1002.38659 1137.63
1002.52594 1296.87
1002.6653 4724.55
1002.80469 8957.16
1002.94409 4680.61
1003.08352 939.832
1003.22296 423.217
1003.36242 408.606
1003.5019 409.141
1003.64141 408.933
1003.78093 425.996
1003.92047 561.308
1004.06002 717.35
1004.1996 568.326
1004.3392 633.968
1004.47882 2075.05
1004.61846 3743.58
1004.75811 2075.23
1004.89779 615.162
1005.03748 413.072
1005.1772 406.782
1005.31693 406.905
1005.45669 406.688
1005.59646 406.434
1005.73625 409.486
1005.87606 495.848
1006.01589 1331.28
1006.15575 3984.34
1006.29562 5654.57
1006.43551 2792.95
1006.57541 700.825
1006.71534 490.41
1006.85529 998.968
1006.99526 1664.77
1007.13524 1692.4
1007.27525 2336.94
1007.41528 2265.58
1007.55532 1104.11
1007.69539 488.377
