# Obtained using Skycalc tool from ESO webpage
# Not including telescope emissivity
Wave[nm] Radiance[photons/s/m**2/micron/arsec**2]
1400 10.3703
1400.28003 14.2001
1400.56011 2.1837
1400.84025 6.52237
1401.12045 21.2615
1401.4007 2.27529
1401.68101 12.3205
1401.96137 437.648
1402.24179 51844.1
1402.52227 145.812
1402.8028 84.307
1403.08339 43.7465
1403.36404 97.8598
1403.64474 91.1438
1403.92549 63.2439
1404.20631 26.7886
1404.48718 316.461
1404.7681 21.2314
1405.04908 2.07288
1405.33012 8.62383
1405.61121 108.058
1405.89237 6086.98
1406.17357 102.463
1406.45483 128.633
1406.73615 16.9469
1407.01753 1021.7
1407.29896 5.29123
1407.58045 28.3913
1407.86199 127.896
1408.14359 130.661
1408.42525 63.7022
1408.70696 48687.7
1408.98873 20.7097
1409.27056 12.7393
1409.55244 2.32224
1409.83438 37.7257
1410.11638 2427.05
1410.39843 20899.5
1410.68053 7636.6
1410.9627 104.532
1411.24492 66.4707
1411.5272 74.7892
1411.80953 150.304
1412.09192 86.3717
1412.37437 29.7032
1412.65687 129.772
1412.93943 196.192
1413.22205 168.185
1413.50472 94488.4
1413.78745 89.3301
1414.07023 40.6271
1414.35308 43.9434
1414.63598 13.8423
1414.91893 36.9539
1415.20194 70.4841
1415.48501 58.1616
1415.76814 114.736
1416.05132 155.546
1416.33456 71261.2
1416.61785 121.84
1416.9012 117.341
1417.18461 140.018
1417.46808 103.826
1417.7516 84.8651
1418.03518 94.8438
1418.31881 176.997
1418.60251 113269
1418.88626 33.0304
1419.17006 3395.66
1419.45392 1910.9
1419.73784 69.809
1420.02182 61.4221
1420.30585 165.817
1420.58994 51.6445
1420.87409 126.383
1421.15829 113.595
1421.44255 137.335
1421.72687 142.202
1422.01124 179.984
1422.29567 169.708
1422.58016 4580.4
1422.8647 116.251
1423.14931 81.5564
1423.43396 60.5943
1423.71868 116.647
1424.00345 15.4728
1424.28828 179.546
1424.57317 195.085
1424.85811 151.222
1425.14311 176.093
1425.42817 116.615
1425.71328 64.5815
1425.99845 93.3154
1426.28368 192.658
1426.56897 8654.24
1426.85431 166.83
1427.13971 142.818
1427.42516 114.9
1427.71068 77.7129
1427.99625 154.319
1428.28188 65.9197
1428.56756 88.03
1428.8533 106.692
1429.1391 8843.56
1429.42496 8813.67
1429.71087 162.621
1429.99684 100.171
1430.28287 230.71
1430.56896 235.445
1430.8551 178.178
1431.1413 65.8979
1431.42756 118.661
1431.71387 55.2543
1432.00024 92.3187
1432.28667 80.4543
1432.57316 27.2077
1432.8597 137.678
1433.1463 178.106
1433.43296 211.68
1433.71967 129.563
1434.00645 148.693
1434.29328 40789.5
1434.58016 100.436
1434.86711 184.381
1435.15411 620.524
1435.44117 190.591
1435.72829 156152
1436.01546 98.568
1436.30269 139.037
1436.58998 184.015
1436.87733 5567.3
1437.16473 94.156
1437.45219 34208.2
1437.73971 33.0763
1438.02729 311.755
1438.31492 208.748
1438.60262 159.566
1438.89036 226.007
1439.17817 1761.68
1439.46604 62.0532
1439.75396 6080.54
1440.04194 186.746
1440.32997 4100.79
1440.61807 164.579
1440.90622 172.537
1441.19443 190.898
1441.4827 44.0226
1441.77103 187.468
1442.05941 633.08
1442.34785 154.791
1442.63635 1916.78
1442.9249 33.8076
1443.21352 195.536
1443.50219 241.397
1443.79092 227.429
1444.07971 184.586
1444.36855 137.355
1444.65745 229.02
1444.94641 233.116
1445.23543 146.052
1445.52451 46.6568
1445.81364 20.6193
1446.10283 300.399
1446.39208 230.191
1446.68139 260.648
1446.97075 17291.9
1447.26018 155.626
1447.54966 247.102
1447.8392 293.906
1448.12879 214.996
1448.41845 279.13
1448.70816 228.266
1448.99793 273.384
1449.28776 292.697
1449.57765 264.303
1449.86759 198.693
1450.15759 379.279
1450.44766 230.166
1450.73777 57.4631
1451.02795 94.8276
1451.31819 184.583
1451.60848 314.147
1451.89883 320609
1452.18924 146.001
1452.4797 2191.59
1452.77023 308.455
1453.06081 186.424
1453.35145 319.704
1453.64215 335.31
1453.93291 340.414
1454.22373 336.15
1454.5146 279.661
1454.80553 329.912
1455.09652 299.021
1455.38757 121.451
1455.67868 326.493
1455.96984 341.891
1456.26107 129111
1456.55235 412.737
1456.84369 313.547
1457.13508 361.622
1457.42654 324.959
1457.71805 223.724
1458.00963 379.398
1458.30126 393.87
1458.59295 348.615
1458.8847 391.533
1459.1765 374.94
1459.46837 382.69
1459.76029 358.887
1460.05227 352.515
1460.34431 126908
1460.63641 149382
1460.92856 380.547
1461.22078 232.736
1461.51305 337.076
1461.80538 323.479
1462.09777 369.729
1462.39022 384.694
1462.68273 377.981
1462.9753 263.351
1463.26792 136.793
1463.5606 488.315
1463.85335 504.27
1464.14615 382.535
1464.439 667.308
1464.73192 385.76
1465.0249 378.773
1465.31793 102.907
1465.61102 644.1
1465.90418 562.243
1466.19739 292.162
1466.49065 70949.7
1466.78398 257.579
1467.07737 362.874
1467.37081 338.556
1467.66432 287.091
1467.95788 530.126
1468.2515 351.852
1468.54518 332.992
1468.83892 372.864
1469.13271 280.146
1469.42657 275.959
1469.72049 70406.3
1470.01446 100595
1470.30849 9014.23
1470.60258 122.528
1470.89673 162.463
1471.19094 325.231
1471.48521 2281
1471.77953 275.533
1472.07392 328.461
1472.36836 101.41
1472.66287 217.915
1472.95743 351.648
1473.25205 242.492
1473.54673 318.395
1473.84147 15822.5
1474.13627 16804.6
1474.43112 369.1
1474.72604 334.965
1475.02101 369.416
1475.31605 356.696
1475.61114 17796.3
1475.90629 136.797
1476.2015 326.678
1476.49677 345.505
1476.7921 252.009
1477.08749 21140
1477.38294 22596.3
1477.67844 267.441
1477.97401 171.765
1478.26963 102704
1478.56532 353.659
1478.86106 300.387
1479.15686 335.49
1479.45272 179.623
1479.74864 324.812
1480.04462 92648.1
1480.34066 212.933
1480.63676 40305.5
1480.93291 337.156
1481.22913 347.587
1481.52541 305.421
1481.82174 185.692
1482.11813 214.121
1482.41459 336.542
1482.7111 330.069
1483.00767 297.806
1483.3043 215423
1483.60099 333.218
1483.89774 338.227
1484.19455 314.377
1484.49142 204.652
1484.78835 354.861
1485.08534 401.938
1485.38238 362.264
1485.67949 375.421
1485.97666 416.206
1486.27388 464.345
1486.57117 79731.7
1486.86851 429.997
1487.16591 411.225
1487.46338 484.803
1487.7609 576.464
1488.05848 440.173
1488.35612 516.349
1488.65382 299306
1488.95158 623.71
1489.2494 700.474
1489.54728 534.167
1489.84522 612.786
1490.14322 759.8
1490.44128 794.351
1490.7394 17609.2
1491.03757 17557.9
1491.33581 608.564
1491.63411 738.506
1491.93247 811.723
1492.23088 847.131
1492.52936 863.542
1492.82789 831.714
1493.12649 103016
1493.42514 957.454
1493.72386 1018.54
1494.02263 912.484
1494.32147 996.41
1494.62036 1078.34
1494.91932 946.611
1495.21833 982.158
1495.5174 1116.67
1495.81654 965.688
1496.11573 1179.69
1496.41498 943.918
1496.7143 1141.3
1497.01367 1244.11
1497.3131 1247.25
1497.61259 1163.05
1497.91215 1189.82
1498.21176 1085.69
1498.51143 1212.96
1498.81116 1264.73
1499.11096 1190.27
1499.41081 1259.07
1499.71072 1175.57
1500.01069 1292.89
1500.31072 1305.71
1500.61082 5720.94
1500.91097 1299.13
1501.21118 1292.2
1501.51145 1316.78
1501.81179 1174.41
1502.11218 1330.05
1502.41263 5476.91
1502.71314 5122.77
1503.01372 1322.41
1503.31435 1270.86
1503.61504 1264.15
1503.9158 1046.38
1504.21661 1331.62
1504.51748 1265.95
1504.81842 1141.87
1505.11941 1336.93
1505.42046 845496
1505.72158 1340.61
1506.02275 1394.5
1506.32399 25970.7
1506.62528 1406.45
1506.92664 265146
1507.22805 1326.27
1507.52953 1418.49
1507.83106 1414.53
1508.13266 10329.7
1508.43432 1290.07
1508.73603 45090.6
1509.03781 1309.62
1509.33965 1445.22
1509.64155 1453.72
1509.94351 1460.1
1510.24552 1413.54
1510.5476 1457.06
1510.84974 4484.15
1511.15194 1449.65
1511.4542 23536.6
1511.75653 1480.28
1512.05891 1494.9
1512.36135 1432.07
1512.66385 1500.02
1512.96641 1444.35
1513.26904 1946.05
1513.57172 1867.43
1513.87447 2232.15
1514.17727 1466.42
1514.48014 6428.83
1514.78306 1489.49
1515.08605 3107.72
1515.3891 1544.58
1515.69221 1541.93
1515.99538 1556.49
1516.2986 1474.41
1516.60189 1561.1
1516.90525 1500.93
1517.20866 1553.15
1517.51213 1501.55
1517.81566 1753.73
1518.11926 1590.86
1518.42291 2386.21
1518.72662 164936
1519.0304 1528.46
1519.33424 1562.81
1519.63813 1601.34
1519.94209 1607.54
1520.24611 1617.16
1520.55019 1594.32
1520.85433 1635.04
1521.15853 1632.64
1521.46279 1618.23
1521.76712 1567.75
1522.0715 1596.46
1522.37595 1615.3
1522.68045 1640.58
1522.98502 1629.24
1523.28965 1545.73
1523.59433 1530.2
1523.89908 1531.04
1524.20389 559378
1524.50876 1467.47
1524.8137 1493.48
1525.11869 1471.12
1525.42374 1464.47
1525.72886 1439.55
1526.03404 1446.67
1526.33927 1427.5
1526.64457 1401.28
1526.94993 1552.28
1527.25535 1381.41
1527.56083 1394.26
1527.86638 1387.72
1528.17198 1491.61
1528.47764 1473.93
1528.78337 201505
1529.08916 1338.18
1529.39501 1326.58
1529.70092 1300.38
1530.00689 1303.3
1530.31292 1277.49
1530.61901 1280.12
1530.92517 1267.43
1531.23138 1234.98
1531.53766 1240.93
1531.844 1233.19
1532.1504 1222.83
1532.45686 1209.44
1532.76338 1197.06
1533.06996 287241
1533.37661 288185
1533.68331 1161.29
1533.99008 1144.53
1534.29691 1137.24
1534.6038 1131.55
1534.91075 1111.52
1535.21776 1095.25
1535.52484 1091.77
1535.83197 1077.34
1536.13917 1068.11
1536.44643 1060.51
1536.75375 1049.74
1537.06113 1034.83
1537.36857 1034.26
1537.67608 1024.79
1537.98364 1013.06
1538.29127 1000.03
1538.59896 1028.15
1538.90671 980.094
1539.21452 985.791
1539.5224 153281
1539.83033 942.911
1540.13833 924.577
1540.44639 1312.94
1540.75451 901.163
1541.06269 1147.63
1541.37093 888.774
1541.67924 867.013
1541.9876 856.261
1542.29603 861.512
1542.60452 849.455
1542.91307 3267.65
1543.22169 367156
1543.53036 807.345
1543.8391 2213.38
1544.1479 780.719
1544.45676 779.445
1544.76568 778.527
1545.07467 773.962
1545.38371 769.605
1545.69282 765.021
1546.00199 760.692
1546.31122 12287.5
1546.62051 752.255
1546.92987 748.606
1547.23929 746.881
1547.54876 7078.08
1547.8583 735.015
1548.16791 731.596
1548.47757 727.283
1548.7873 722.599
1549.09709 718.477
1549.40694 714.131
1549.71685 709.079
1550.02682 43097.1
1550.33686 701.274
1550.64696 696.302
1550.95712 79439.7
1551.26734 687.761
1551.57763 683.206
1551.88797 22174.8
1552.19838 672.726
1552.50885 670.406
1552.81938 666.278
1553.12998 661.659
1553.44064 657.648
1553.75136 653.168
1554.06214 168867
1554.37298 643.518
1554.68389 117774
1554.99485 635.71
1555.30588 631.335
1555.61698 627.091
1555.92813 622.683
1556.23935 618.73
1556.55063 614.579
1556.86197 27621.5
1557.17337 27612.3
1557.48484 1641.91
1557.79637 596.432
1558.10796 591.736
1558.41961 587.623
1558.73132 582.713
1559.0431 578.822
1559.35494 574.287
1559.66684 233028
1559.97881 565.431
1560.29084 2269.66
1560.60292 556.92
1560.91508 552.044
1561.22729 548.027
1561.53957 543.793
1561.85191 539.402
1562.16431 533.882
1562.47677 529.709
1562.7893 3081.35
1563.10189 125930
1563.41454 517.427
1563.72725 512.585
1564.04003 508.477
1564.35287 503.08
1564.66577 499.818
1564.97874 495.431
1565.29176 490.747
1565.60485 321825
1565.918 29325.4
1566.23122 477.428
1566.5445 981.329
1566.85784 468.333
1567.17124 1019.46
1567.48471 466.846
1567.79823 1433.32
1568.11183 467.699
1568.42548 5841.92
1568.7392 466.54
1569.05297 465.297
1569.36682 2023.76
1569.68072 2330.26
1569.99469 459.791
1570.30872 93042.4
1570.62281 3152.61
1570.93697 451.166
1571.25119 6417.14
1571.56547 440.884
1571.87981 4324.72
1572.19422 446.966
1572.50869 5021.08
1572.82322 462.462
1573.13782 453.429
1573.45248 5162.25
1573.7672 6582.44
1574.08199 5322.4
1574.39683 464.419
1574.71175 6320.87
1575.02672 7854.48
1575.34176 507.248
1575.65686 478.183
1575.97202 14518.9
1576.28724 483.295
1576.60253 8197.3
1576.91789 5119.56
1577.2333 463.902
1577.54878 5207.09
1577.86432 8252.76
1578.17992 15403.1
1578.49559 487.34
1578.81132 2806.57
1579.12712 465.737
1579.44297 7395.63
1579.75889 494.009
1580.07488 472.478
1580.39092 25331.2
1580.70703 34361.6
1581.02321 17886.2
1581.33944 938.115
1581.65574 499.745
1581.97211 489.029
1582.28853 1919.34
1582.60502 493.857
1582.92157 82009.3
1583.23819 756956
1583.55487 500.226
1583.87161 3698.88
1584.18842 25113
1584.50529 2604.93
1584.82222 269825
1585.13922 508.785
1585.45628 4404.37
1585.7734 3391.04
1586.09058 5432.93
1586.40783 4990.07
1586.72515 4214.33
1587.04252 88027.9
1587.35996 3472.16
1587.67747 518.21
1587.99504 518.604
1588.31267 3604.68
1588.63036 3056.93
1588.94812 3757.03
1589.26594 522.2
1589.58382 26436
1589.90177 3072.96
1590.21979 2410.85
1590.53786 525.371
1590.856 526.03
1591.1742 1977.54
1591.49247 2046.19
1591.8108 3284.5
1592.12919 529.29
1592.44765 2644.05
1592.76617 1379.22
1593.08476 6952.53
1593.40341 552.672
1593.72212 533.302
1594.0409 533.964
1594.35974 982.872
1594.67864 935.138
1594.99761 536.153
1595.31664 1624.1
1595.63573 537.908
1595.95489 538.571
1596.27412 538.472
1596.5934 750.257
1596.91275 540.497
1597.23217 165332
1597.55165 1631.94
1597.87119 541.432
1598.1908 541.335
1598.51047 1367.97
1598.8302 540.59
1599.15 536.359
1599.46986 542.441
1599.78979 545.617
1600.10978 547.483
1600.42983 549.124
1600.74995 549.883
1601.07013 549.955
1601.39038 549.829
1601.71069 592.294
1602.03106 558.561
1602.3515 734.103
1602.672 566.283
1602.99257 551303
1603.3132 573.991
1603.63389 580.242
1603.95465 588.781
1604.27547 878.455
1604.59636 610.092
1604.91731 634.145
1605.23833 635.35
1605.55941 880.564
1605.88055 894.408
1606.20176 650.708
1606.52303 644.694
1606.84437 642.086
1607.16577 667.703
1607.48724 658.702
1607.80877 42202.3
1608.13036 166176
1608.45202 692.419
1608.77374 659.547
1609.09553 662.333
1609.41738 696.137
1609.73929 687.991
1610.06127 680.525
1610.38332 696.072
1610.70543 722.761
1611.0276 702.47
1611.34984 732.817
1611.67214 725.739
1611.99451 726.266
1612.31694 758.873
1612.63943 742.18
1612.96199 583782
1613.28462 774.726
1613.60731 766.153
1613.93006 786.053
1614.25288 782.807
1614.57576 788.617
1614.89871 802.285
1615.22172 799.413
1615.5448 812.364
1615.86794 811.474
1616.19115 819.232
1616.51442 826.379
1616.83775 828.621
1617.16115 838.371
1617.48462 840.96
1617.80815 848.802
1618.13174 851.888
1618.4554 859.684
1618.77912 861.956
1619.10291 869.323
1619.42676 159805
1619.75068 899.302
1620.07466 885.652
1620.39871 891.857
1620.72282 924.855
1621.047 930.316
1621.37124 907.026
1621.69555 912.072
1622.01992 926.295
1622.34436 928.199
1622.66886 928.724
1622.99342 1001.16
1623.31805 981.799
1623.64275 385925
1623.96751 947.581
1624.29234 954.552
1624.61723 1441.28
1624.94218 965.979
1625.26721 1260.54
1625.59229 975.424
1625.91744 978.514
1626.24266 985.567
1626.56794 991.427
1626.89329 2354.05
1627.2187 2354.45
1627.54417 1007.19
1627.86971 2574.67
1628.19532 1004.2
1628.52099 1000.31
1628.84673 993.259
1629.17253 986.235
1629.4984 978.611
1629.82433 971.447
1630.15033 12970.3
1630.47639 943.685
1630.80252 944.17
1631.12871 939.7
1631.45497 7417.75
1631.78129 86576.3
1632.10768 915.497
1632.43414 906.686
1632.76066 894.399
1633.08724 883.83
1633.41389 884.281
1633.74061 875.551
1634.06739 42172.6
1634.39423 860.436
1634.72115 854.412
1635.04812 185115
1635.37516 814.849
1635.70227 833.023
1636.02945 21562.5
1636.35668 815.9
1636.68399 804.408
1637.01136 802.966
1637.33879 794.29
1637.66629 752.871
1637.99386 769.621
1638.32149 768.136
1638.64919 759.511
1638.97695 109016
1639.30478 742.835
1639.63267 731.116
1639.96063 726.923
1640.28866 677.1
1640.61675 711.922
1640.9449 702.586
1641.27313 694.169
1641.60141 50285
1641.92977 677.808
1642.25818 669.569
1642.58667 663.728
1642.91522 612.267
1643.24384 645.218
1643.57252 639.117
1643.90126 631.74
1644.23008 207785
1644.55896 3747.42
1644.8879 31310.2
1645.21691 602.261
1645.54599 543.05
1645.87513 587.937
1646.20434 579.826
1646.53361 571.792
1646.86295 565.742
1647.19236 555.461
1647.52183 33629.3
1647.85137 118294
1648.18097 501.269
1648.51064 518.952
1648.84037 513.498
1649.17017 505.278
1649.50004 500.74
1649.82997 491.331
1650.15997 248474
1650.49004 477.126
1650.82017 437.659
1651.15037 457.166
1651.48063 452.454
1651.81096 447.872
1652.14135 436.453
1652.47181 430.936
1652.80234 424.743
1653.13294 415.574
1653.4636 405.942
1653.79432 376.779
1654.12511 392.87
1654.45597 385.176
1654.7869 376.647
1655.11789 367.629
1655.44894 88945.1
1655.78007 351.604
1656.11125 345.107
1656.44251 327.552
1656.77383 329.549
1657.10522 321.18
1657.43667 313.948
1657.76819 305.968
1658.09978 298.531
1658.43143 5377.14
1658.76315 5378.94
1659.09494 274.771
1659.42679 263.201
1659.75871 258.722
1660.0907 253.279
1660.42275 254.153
1660.75486 254.656
1661.08705 18891.7
1661.4193 254.399
1661.75162 255.85
1662.084 256.322
1662.41645 252.659
1662.74897 257.396
1663.08155 258.15
1663.4142 257.783
1663.74692 259.144
1664.0797 259.683
1664.41255 260.225
1664.74546 260.807
1665.07845 260.8
1665.41149 240.491
1665.74461 239.388
1666.07779 237.241
1666.41104 253.718
1666.74436 256.625
1667.07774 259.801
1667.41119 263.006
1667.7447 264.969
1668.07829 264.649
1668.41193 265.272
1668.74565 293.013
1669.07943 715241
1669.41328 267.408
1669.7472 268.299
1670.08118 269.209
1670.41523 21271.5
1670.74935 234155
1671.08353 270.638
1671.41778 268.125
1671.7521 271.481
1672.08648 272.316
1672.42093 8519.29
1672.75545 273.35
1673.09003 70912.5
1673.42469 10979.7
1673.7594 274.7
1674.09419 275.491
1674.42904 267.408
1674.76396 276.58
1675.09895 276.868
1675.434 5208.22
1675.76912 2291.14
1676.10431 278.495
1676.43956 23275
1676.77488 279.099
1677.11027 279.993
1677.44573 272.214
1677.78125 278.152
1678.11684 281.865
1678.4525 281.399
1678.78822 282.835
1679.12401 283.487
1679.45987 1161.87
1679.7958 284.344
1680.13179 5931.77
1680.46785 285.542
1680.80398 277.328
1681.14017 286.265
1681.47643 286.327
1681.81276 287.433
1682.14916 289.324
1682.48562 292.513
1682.82215 295.869
1683.15875 298.784
1683.49542 302.239
1683.83215 303.729
1684.16895 119103
1684.50582 312.027
1684.84275 1465.5
1685.17975 318.061
1685.51682 321.449
1685.85396 324.722
1686.19116 328.112
1686.52844 331.186
1686.86578 334.657
1687.20318 326.256
1687.54066 340.67
1687.8782 343.853
1688.21581 347.443
1688.55349 351.072
1688.89123 561.306
1689.22904 565.462
1689.56692 401.832
1689.90487 363.394
1690.24288 472698
1690.58097 792.167
1690.91912 710.687
1691.25733 376.185
1691.59562 376.589
1691.93397 382.174
1692.27239 384.056
1692.61088 389.299
1692.94944 393.318
1693.28806 396.14
1693.62675 399.571
1693.96551 393.977
1694.30434 404.779
1694.64323 407.755
1694.9822 410.943
1695.32123 415.963
1695.66032 179839
1695.99949 429.112
1696.33872 425.748
1696.67803 447.821
1697.01739 427.952
1697.35683 418.941
1697.69634 438.841
1698.03591 441.105
1698.37555 444.577
1698.71526 448.038
1699.05504 451.507
1699.39488 454.466
1699.7348 453.195
1700.07478 458.145
1700.41483 463.435
1700.75494 498487
1701.09513 460.074
1701.43538 474.52
1701.7757 476.168
1702.11609 479.949
1702.45655 482.236
1702.79707 480.912
1703.13767 489.849
1703.47833 487.808
1703.81906 498.632
1704.15986 496.352
1704.50072 494.339
1704.84166 494.488
1705.18266 487.105
1705.52373 543.684
1705.86487 489.82
1706.20608 481.475
1706.54735 483.315
1706.88869 477.1
1707.23011 526.846
1707.57159 519.036
1707.91314 140443
1708.25475 473.911
1708.59644 455.242
1708.93819 463.399
1709.28001 472.666
1709.6219 469.534
1709.96386 469.601
1710.30589 466.768
1710.64798 460.835
1710.99015 465.505
1711.33238 463.507
1711.67468 462.632
1712.01705 460.159
1712.35949 347484
1712.70199 456.859
1713.04457 455.385
1713.38721 452.961
1713.72992 450.772
1714.0727 446.778
1714.41555 431.644
1714.75847 442.277
1715.10146 446.709
1715.44451 442.37
1715.78763 443.706
1716.13083 427.209
1716.47409 439.87
1716.81741 438.451
1717.16081 445.597
1717.50428 521.146
1717.84781 458.537
1718.19142 456.027
1718.53509 430.38
1718.87883 934.172
1719.22264 427.309
1719.56652 731.593
1719.91047 422.477
1720.25449 421.923
1720.59857 418.025
1720.94273 79438.9
1721.28695 2771.48
1721.63124 407.457
1721.9756 413.036
1722.32003 1921.52
1722.66453 407.951
1723.0091 410.165
1723.35373 406.718
1723.69844 389.397
1724.04321 402.202
1724.38805 10340.2
1724.73297 85948.2
1725.07795 85153.7
1725.423 396.124
1725.76812 6324.14
1726.11331 385.58
1726.45856 391.936
1726.80389 390.676
1727.14928 385.25
1727.49475 385.282
1727.84028 385.492
1728.18588 36156.7
1728.53156 376.176
1728.8773 373.547
1729.22311 378.447
1729.56899 377.578
1729.91493 376.482
1730.26095 18257.4
