# Obtained using Skycalc tool from ESO webpage
# Not including telescope emissivity
Wave[nm] Radiance[photons/s/m**2/micron/arsec**2]
800 357.137
800.114294 247.049
800.228604 221.585
800.342931 178.902
800.457273 258.299
800.571633 227.507
800.686008 224.128
800.8004 206.345
800.914808 177.802
801.029233 212.081
801.143674 180.461
801.258131 220.933
801.372605 235.411
801.487095 178.619
801.601601 3075.28
801.716124 276.426
801.830663 265.104
801.945218 181.088
802.05979 181.354
802.174378 489.749
802.288983 524.928
802.403604 181.629
802.518241 181.025
802.632895 256.976
802.747565 4646.26
802.862251 4382.64
802.976954 182.277
803.091673 953.819
803.206409 236.063
803.321161 183.137
803.435929 427.42
803.550714 183.013
803.665515 242.716
803.780332 243.539
803.895166 182.961
804.010017 184.323
804.124883 217.088
804.239767 188.49
804.354666 266.74
804.469582 214.127
804.584515 183.809
804.699464 185.415
804.814429 202.771
804.929411 202.414
805.044409 185.943
805.159423 320.602
805.274454 321.011
805.389502 2084.43
805.504566 185.862
805.619646 186.428
805.734743 210.335
805.849856 191.337
805.964985 201.254
806.080131 189.353
806.195294 220.606
806.310473 187.689
806.425668 4049.58
806.54088 215.931
806.656109 189.265
806.771353 194.564
806.886615 240.319
807.001893 222.619
807.117187 188.726
807.232497 187.849
807.347825 188.903
807.463168 189.323
807.578528 189.529
807.693905 312.21
807.809298 189.183
807.924708 316.532
808.040134 299.56
808.155576 189.87
808.271035 190.189
808.386511 190.256
808.502003 190.584
808.617511 190.936
808.733036 581.385
808.848578 191.091
808.964136 191.311
809.079711 191.429
809.195302 191.667
809.310909 190.776
809.426533 191.925
809.542174 1021.61
809.657831 191.067
809.773505 283.406
809.889195 191.352
810.004902 192.385
810.120625 197.066
810.236365 204.548
810.352121 221.376
810.467894 1928.82
810.583683 193.055
810.699489 281.979
810.815312 221.077
810.931151 220.765
811.047006 209.881
811.162878 193.431
811.278767 220.278
811.394672 217.175
811.510594 206.337
811.626533 190.895
811.742487 194.797
811.858459 195.288
811.974447 195.261
812.090452 193.462
812.206473 213.159
812.322511 193.217
812.438565 213.236
812.554636 228.621
812.670724 196.012
812.786828 195.4
812.902948 224.14
813.019086 251.929
813.135239 197.162
813.25141 220.994
813.367597 229.14
813.483801 258.528
813.600021 184.553
813.716258 233.312
813.832511 249.451
813.948781 234.468
814.065068 418.232
814.181371 445.006
814.297691 285.164
814.414028 208.874
814.530381 198.295
814.646751 192.878
814.763137 199.202
814.87954 688.015
814.99596 548.128
815.112396 189.674
815.228849 189.857
815.345319 212.12
815.461805 207.937
815.578308 211.929
815.694827 180.575
815.811364 200.2
815.927916 200.152
816.044486 185.475
816.161072 201.051
816.277675 200.742
816.394294 170.005
816.51093 186.048
816.627583 177.004
816.744252 190.858
816.860939 201.669
816.977641 201.902
817.094361 189.793
817.211097 171.02
817.32785 202.254
817.444619 202.834
817.561405 201.927
817.678208 201.745
817.795028 203.112
817.911864 172.7
818.028717 184.822
818.145586 190.232
818.262473 203.246
818.379376 187.968
818.496295 201.047
818.613232 204.106
818.730185 204.756
818.847155 190.639
818.964141 204.178
819.081144 473.887
819.198164 179.783
819.315201 205.216
819.432254 205.039
819.549324 183.101
819.666411 393.666
819.783515 355.736
819.900635 205.542
820.017772 178.896
820.134926 202.323
820.252096 192.852
820.369284 206.315
820.486488 207.795
820.603708 208.084
820.720946 243.647
820.8382 231.785
820.955471 283.334
821.072759 243.349
821.190063 237.803
821.307385 207.644
821.424723 202.684
821.542077 209.773
821.659449 257.634
821.776837 262.585
821.894242 210.453
822.011664 198.074
822.129103 210.773
822.246558 211.263
822.36403 203.853
822.481519 211.488
822.599025 202.034
822.716548 210.259
822.834087 205.112
822.951643 181.692
823.069216 152.177
823.186806 199.764
823.304412 190.621
823.422035 195.482
823.539676 212.863
823.657333 197.024
823.775006 213.954
823.892697 212.979
824.010404 210.283
824.128128 215.078
824.245869 210.984
824.363627 318.191
824.481402 308.002
824.599193 195.505
824.717002 216.597
824.834827 216.628
824.952669 363.774
825.070527 328.909
825.188403 217.715
825.306296 217.93
825.424205 217.511
825.542131 212.384
825.660074 218.513
825.778034 334.155
825.896011 195.043
826.014004 218.072
826.132015 215.817
826.250042 212.12
826.368086 219.939
826.486147 219.837
826.604225 212.39
826.72232 220.289
826.840431 221.238
826.95856 221.446
827.076705 247.022
827.194868 221.068
827.313047 222.089
827.431243 228.524
827.549456 220.889
827.667685 198.287
827.785932 222.151
827.904196 291.136
828.022476 2150.45
828.140774 1076.74
828.259088 222.158
828.377419 5779.93
828.495767 902.188
828.614132 254.609
828.732514 276.023
828.850913 2160.53
828.969328 205.886
829.087761 7801.54
829.206211 215.846
829.324677 686.786
829.443161 226.732
829.561661 226.033
829.680178 204.185
829.798712 3216.8
829.917264 227.732
830.035832 227.79
830.154417 9299.13
830.273019 214.297
830.391638 410.638
830.510273 493.189
830.628926 343.717
830.747596 284.102
830.866283 229.243
830.984986 229.373
831.103707 271.465
831.222445 229.789
831.341199 3500.16
831.459971 222.941
831.578759 228.899
831.697564 231.294
831.816387 224.445
831.935226 231.39
832.054083 594.65
832.172956 288.282
832.291846 226.208
832.410754 208.53
832.529678 233.22
832.648619 233.526
832.767578 233.594
832.886553 232.386
833.005545 234.123
833.124555 232.044
833.243581 226.46
833.362624 234.84
833.481684 232.405
833.600762 230.351
833.719856 233.859
833.838967 233.46
833.958096 398.394
834.077241 428.188
834.196404 233.675
834.315583 236.81
834.434779 234.107
834.553993 2910.58
834.673223 23526.3
834.792471 237.985
834.911736 237.727
835.031017 238.377
835.150316 603.23
835.269632 592.345
835.388964 239.241
835.508314 8152.75
835.627681 236.378
835.747065 238.95
835.866466 285.262
835.985884 235.12
836.105319 240.828
836.224771 378.34
836.34424 784.849
836.463727 337.296
836.58323 337.684
836.70275 2875.84
836.822288 448.166
836.941843 280.978
837.061414 242.813
837.181003 275.416
837.300609 242.756
837.420232 243.563
837.539872 269.91
837.659529 241.919
837.779203 244.003
837.898894 327.767
838.018603 244.403
838.138328 245.041
838.258071 995.987
838.37783 245.181
838.497607 5770.26
838.617401 244.573
838.737212 244.519
838.85704 245.786
838.976886 303.659
839.096748 246.883
839.216628 379.795
839.336524 336.654
839.456438 320.956
839.576369 247.165
839.696317 247.222
839.816282 283.745
839.936265 247.591
840.056264 248.956
840.176281 19438.1
840.296314 336.118
840.416365 249.916
840.536433 249.933
840.656519 249.98
840.776621 248.681
840.89674 250.917
841.016877 250.542
841.137031 248.684
841.257202 251.334
841.37739 251.666
841.497596 252.182
841.617818 252.245
841.738058 7210.91
841.858315 252.736
841.978589 252.627
842.09888 251.897
842.219188 253.652
842.339514 253.876
842.459857 254.143
842.580217 369.908
842.700594 391.644
842.820988 387.791
842.9414 526.623
843.061829 255.015
843.182275 255.304
843.302738 18736.6
843.423218 397.269
843.543716 256.398
843.664231 590.984
843.784763 283.527
843.905312 255.61
844.025879 256.796
844.146463 257.727
844.267064 257.518
844.387682 258.2
844.508317 257.748
844.62897 258.721
844.74964 258.589
844.870327 445.077
844.991031 259.442
845.111753 287.341
845.232492 259.812
845.353248 333.39
845.474021 6371.62
845.594812 338.223
845.71562 261.003
845.836445 261.275
845.957287 283.872
846.078147 261.788
846.199024 261.409
846.319918 341.549
846.44083 357.794
846.561758 262.59
846.682704 263.051
846.803668 16081.7
846.924648 263.556
847.045646 263.763
847.166661 263.914
847.287694 264.246
847.408744 264.552
847.529811 264.768
847.650895 665.259
847.771997 265.313
847.893116 265.552
848.014252 265.418
848.135405 265.908
848.256576 265.535
848.377764 266.554
848.49897 266.651
848.620193 267.081
848.741433 267.337
848.86269 267.266
848.983965 267.317
849.105257 267.906
849.226566 268.346
849.347893 268.31
849.469237 268.562
849.590599 4531.55
849.711977 529.569
849.833374 269.292
849.954787 398.044
850.076218 359.551
850.197666 270.012
850.319131 423.827
850.440614 442.173
850.562114 352.48
850.683632 8131.61
850.805167 271.058
850.926719 271.866
851.048289 272.129
851.169876 272.21
851.29148 272.605
851.413102 270.943
851.534741 272.766
851.656398 273.382
851.778071 273.415
851.899763 273.714
852.021471 274.082
852.143197 273.624
852.264941 495.72
852.386702 274.898
852.50848 274.807
852.630276 275.401
852.752089 275.535
852.873919 275.582
852.995767 276.182
853.117632 276.433
853.239515 276.416
853.361415 276.771
853.483332 277.199
853.605267 277.435
853.72722 277.241
853.849189 277.558
853.971176 278.137
854.093181 6862.77
854.215203 278.341
854.337243 277.948
854.459299 417.387
854.581374 279.491
854.703466 279.751
854.825575 279.651
854.947701 280.16
855.069845 2521.64
855.192007 1039.44
855.314186 280.953
855.436383 281.261
855.558596 281.101
855.680828 281.516
855.803077 281.825
855.925343 282.234
856.047627 282.471
856.169928 282.831
856.292247 283.074
856.414583 283.209
856.536937 283.528
856.659308 283.872
856.781696 284.133
856.904103 284.37
857.026526 284.634
857.148967 284.685
857.271426 285.019
857.393902 354.9
857.516396 285.335
857.638907 698.488
857.761435 389.414
857.883981 286.388
858.006545 376.147
858.129126 286.84
858.251725 286.972
858.374341 286.986
858.496975 287.229
858.619626 287.398
858.742294 287.551
858.864981 287.651
858.987684 688.676
859.110406 655.195
859.233145 287.927
859.355901 288.009
859.478675 288.335
859.601466 288.553
859.724275 288.647
859.847102 865.418
859.969946 875.271
860.092807 289.127
860.215687 289.268
860.338583 289.353
860.461498 289.542
860.58443 289.699
860.707379 354.481
860.830346 323.628
860.95333 290.122
861.076333 370.802
861.199352 324.072
861.32239 384.129
861.445444 361.376
861.568517 455.166
861.691607 472.507
861.814714 655.751
861.93784 625.34
862.060982 927.032
862.184143 808.327
862.307321 291.668
862.430516 1261.21
862.553729 1179.6
862.67696 1664.42
862.800209 1530.74
862.923475 292.342
863.046758 2070.81
863.170059 1734.6
863.293378 292.822
863.416715 2150.32
863.540069 1842.07
863.66344 293.276
863.78683 1984.54
863.910237 1477.01
864.033661 293.694
864.157103 1295.58
864.280563 712.766
864.404041 520.576
864.527536 313.92
864.651048 294.416
864.774579 294.539
864.898127 1842.84
865.021693 294.851
865.145276 294.987
865.268877 2281.93
865.392496 2382.26
865.516132 348.32
865.639786 2437.8
865.763458 2877.68
865.887147 348.9
866.010854 400.924
866.134579 2533.7
866.258321 3076.41
866.382081 296.426
866.505859 296.571
866.629654 2565.65
866.753467 2896.11
866.877298 296.996
867.001146 358.669
867.125013 2197.68
867.248896 1166.33
867.372798 1593.85
867.496717 297.715
867.620654 297.855
867.744609 1730.56
867.868581 1868.06
867.992571 298.287
868.116579 298.431
868.240605 1297.03
868.364648 1350.67
868.488709 298.859
868.612787 319.477
868.736884 299.146
868.860998 885.191
868.98513 960.197
869.10928 299.524
869.233447 299.677
869.357632 414.346
869.481835 517.804
869.606055 688.63
869.730294 300.286
869.85455 300.432
869.978823 457.73
870.103115 300.706
870.227424 734.883
870.351751 543.802
870.476096 316.516
870.600459 389.995
870.724839 301.424
870.849237 381.298
870.973653 691.211
871.098087 611.861
871.222539 301.995
871.347008 342.826
871.471495 335.618
871.596 302.435
871.720522 302.573
871.845063 316.587
871.969621 329.784
872.094197 323.363
872.218791 303.075
872.343402 303.166
872.468032 303.269
872.592679 303.364
872.717344 303.463
872.842027 303.558
872.966727 486.028
873.091446 303.759
873.216182 303.846
873.340936 303.956
873.465708 304.052
873.590498 304.152
873.715305 304.245
873.840131 304.279
873.964974 417.274
874.089835 304.539
874.214714 383.604
874.33961 453.785
874.464525 304.83
874.589457 393.433
874.714408 305.029
874.839376 305.128
874.964362 342.261
875.089366 305.27
875.214387 476.818
875.339427 305.521
875.464484 305.619
875.58956 305.717
875.714653 305.812
875.839764 305.91
875.964893 306.001
876.09004 4126.64
876.215204 2048.27
876.340387 10624.8
876.465587 2047.57
876.590805 785.412
876.716042 306.582
876.841296 4850.38
876.966568 306.765
877.091858 13989.7
877.217165 909.919
877.342491 362.045
877.467835 307.17
877.593196 307.276
877.718576 414.913
877.843973 6725.95
877.969388 307.577
878.094821 14860.8
878.220272 307.563
878.345741 307.831
878.471228 307.901
878.596733 308.065
878.722256 308.107
878.847797 308.189
878.973355 308.277
879.098932 308.457
879.224527 749.978
879.350139 6334.67
879.475769 308.65
879.601418 308.849
879.727084 308.947
879.852768 309.045
879.978471 309.143
880.104191 309.239
880.229929 309.089
880.355685 332.636
880.481459 347.924
880.607251 309.241
880.733061 309.667
880.858889 309.82
880.984735 309.928
881.110599 708.886
881.236481 884.741
881.362381 309.778
881.488299 310.218
881.614235 310.417
881.740189 310.516
881.866161 310.614
881.99215 310.71
882.118158 310.489
882.244184 310.239
882.370228 310.987
882.49629 310.938
882.62237 311.2
882.748468 4497.73
882.874584 311.398
883.000718 36635.2
883.12687 311.593
883.25304 391.035
883.379228 1021.74
883.505434 2460.25
883.631658 700.503
883.7579 501.043
883.88416 14804.5
884.010438 618.181
884.136734 312.163
884.263049 312.469
884.389381 312.574
884.515731 312.673
884.6421 312.77
884.768486 784.843
884.894891 401.031
885.021313 313.018
885.147754 2646.02
885.274213 2566.16
885.40069 313.297
885.527184 312.954
885.653697 341.546
885.780228 313.651
885.906777 313.487
886.033345 312.265
886.15993 322.189
886.286533 332.403
886.413154 640.681
886.539794 833.766
886.666452 327.121
886.793127 314.237
886.919821 1006.65
887.046533 10107.3
887.173263 314.405
887.300011 314.824
887.426777 327.548
887.553562 315.011
887.680364 315.131
887.807184 315.23
887.934023 315.274
888.06088 315.197
888.187755 312.513
888.314648 315.584
888.441559 315.028
888.568488 315.812
888.695436 377.729
888.822401 29430.4
888.949385 316.061
889.076387 504.698
889.203407 514.265
889.330445 316.415
889.457501 316.513
889.584576 316.41
889.711668 461.155
889.838779 602.178
889.965908 446.139
890.093055 316.56
890.22022 316.994
890.347404 315.995
890.474605 317.3
890.601825 12295.4
890.729063 527.005
890.856319 370.55
890.983593 316.565
891.110886 693.908
891.238196 594.416
891.365525 317.392
891.492872 318.093
891.620237 318.196
891.747621 375.899
891.875022 362.691
892.002442 315.53
892.12988 318.433
892.257337 31804.1
892.384811 599.471
892.512304 338.548
892.639814 454.643
892.767344 318.952
892.894891 572.907
893.022456 789.782
893.15004 342.864
893.277642 425.278
893.405262 336.092
893.532901 356.279
893.660557 435.467
893.788232 389.57
893.915925 461.6
894.043637 342.878
894.171367 411.512
894.299114 313.054
894.426881 334.942
894.554665 10695.6
894.682468 319.196
894.810289 331.053
894.938128 320.535
895.065985 325.304
895.193861 318.567
895.321755 318.739
895.449667 305.791
895.577598 320.442
895.705546 282.72
895.833513 337.198
895.961499 319.739
896.089502 26403.3
896.217524 364.166
896.345565 320.614
896.473623 283.955
896.6017 348.04
896.729795 357.652
896.857908 291.694
896.98604 321.414
897.11419 366.937
897.242358 401.071
897.370545 817.846
897.49875 313.625
897.626973 347.296
897.755215 358.448
897.883475 315.763
898.011753 449.622
898.14005 475.197
898.268364 266.03
898.396698 690.358
898.525049 525.533
898.653419 322.662
898.781807 761.071
898.910214 308.332
899.038639 7099.41
899.167082 292.736
899.295544 279.268
899.424024 668.191
899.552522 642.183
899.681039 323.402
899.809574 323.601
899.938127 323.862
900.066699 336.149
900.195289 312.188
900.323898 7291.99
900.452524 7430.42
900.58117 275.238
900.709833 314.345
900.838515 323.072
900.967216 284.744
901.095935 313.979
901.224672 323.232
901.353427 317.641
901.482201 285.077
901.610994 323.4
901.739805 324.552
901.868634 252.575
901.997481 294.196
902.126347 323.541
902.255232 324.887
902.384134 659.505
902.513056 274.707
902.641995 324.109
902.770953 294.795
902.89993 299.397
903.028925 384.321
903.157938 491.809
903.28697 385.051
903.41602 393.238
903.545089 326.822
903.674176 325.64
903.803281 325.592
903.932405 327.555
904.061548 3917.35
904.190709 324.18
904.319888 321.562
904.449086 320.125
904.578302 467.472
904.707537 328.068
904.83679 328.208
904.966062 322.049
905.095352 325.619
905.22466 7201.49
905.353987 350.099
905.483333 349.315
905.612697 346.425
905.742079 328.431
905.87148 442.337
906.0009 404.907
906.130338 340.024
906.259794 315.684
906.389269 338.02
906.518762 312.322
906.648274 567.605
906.777805 530.436
906.907354 329.343
907.036921 326.822
907.166507 648.672
907.296112 588.097
907.425735 268.704
907.555376 323.131
907.685036 316.019
907.814715 364.045
907.944412 330.504
908.074127 328.342
908.203862 309.849
908.333614 315.516
908.463385 333.191
908.593175 389.707
908.722983 329.401
908.85281 307.282
908.982656 267.655
909.11252 330.368
909.242402 351.797
909.372303 347.61
909.502223 2318.75
909.632161 532.742
909.762118 315.998
909.892093 364.145
910.022087 378.185
910.152099 372.332
910.28213 266.953
910.41218 329.615
910.542248 3621.16
910.672335 368.055
910.80244 293.728
910.932564 300.225
911.062707 315.43
911.192868 332.251
911.323047 346.924
911.453246 332.716
911.583463 330.642
911.713698 332.178
911.843952 324.59
911.974225 317.685
912.104516 255.216
912.234826 327.647
912.365155 332.413
912.495502 334.066
912.625868 326.41
912.756252 328.343
912.886655 332.713
913.017077 321.186
913.147517 313.136
913.277976 263.985
913.408454 328.206
913.53895 322.947
913.669465 434.516
913.799999 296.232
913.930551 351.206
914.061122 333.422
914.191711 391.638
914.322319 327.203
914.452946 333.419
914.583592 327.901
914.714256 341.387
914.844939 332.344
914.97564 400.836
915.10636 331.552
915.237099 321.612
915.367856 1171.1
915.498633 1063.81
915.629427 312.796
915.760241 435.088
915.891073 583.714
916.021924 335.396
916.152794 540.794
916.283682 1249.91
916.414589 1240.81
916.545515 331.749
916.676459 327.966
916.807422 337.45
916.938404 333.188
917.069405 315.647
917.200424 329.541
917.331462 333.869
917.462519 322.913
917.593594 308.017
917.724688 279.718
917.855801 346.177
917.986933 310.244
918.118083 327.543
918.249252 337.227
918.38044 329.039
918.511647 336.575
918.642872 309.556
918.774116 313.434
918.905379 336.115
919.036661 337.643
919.167961 339.47
919.29928 334.194
919.430618 334.142
919.561974 326.448
919.69335 338.275
919.824744 288.222
919.956157 338.847
920.087589 339.119
920.219039 363.816
920.350508 339.495
920.481996 340.633
920.613503 340.323
920.745029 364.798
920.876573 331.171
921.008136 332.225
921.139718 371.251
921.271319 373.11
921.402939 340.797
921.534577 330.678
921.666234 361.189
921.79791 334.46
921.929605 1436.32
922.061319 334.615
922.193051 341.296
922.324803 340.906
922.456573 335.303
922.588362 342.081
922.720169 1335.56
922.851996 1064.12
922.983841 342.176
923.115706 337.928
923.247589 333.093
923.379491 339.204
923.511411 334.891
923.643351 342.062
923.775309 326.315
923.907287 341.282
924.039283 329.135
924.171298 331.299
924.303332 336.996
924.435385 342.224
924.567456 334.567
924.699547 327.219
924.831656 324.879
924.963784 341.239
925.095932 343.68
925.228098 337.019
925.360282 323.96
925.492486 342.069
925.624709 338.411
925.75695 339.656
925.889211 342.951
926.02149 343.271
926.153788 338.158
926.286106 324.673
926.418442 333.669
926.550797 339.069
926.68317 344.232
926.815563 341.558
926.947975 343.107
927.080405 344.23
927.212855 337.308
927.345323 343.296
927.477811 338.25
927.610317 330.164
927.742842 337.497
927.875386 339.839
928.00795 336.756
928.140532 291.851
928.273133 312.076
928.405753 341.265
928.538391 338.892
928.671049 329.457
928.803726 313.53
928.936422 318.417
929.069136 332.021
929.20187 329.492
929.334623 325.851
929.467394 337.022
929.600185 335.138
929.732994 291.316
929.865823 340.59
929.99867 288.906
930.131537 328.092
