# Obtained using Skycalc tool from ESO webpage
# Not including telescope emissivity
Wave[nm] Radiance[photons/s/m**2/micron/arsec**2]
1150 191.886
1150.08581 252.071
1150.17163 290.241
1150.25745 326.584
1150.34328 343.966
1150.42912 343.523
1150.51496 338.939
1150.60081 348.716
1150.68667 505.522
1150.77253 1629.64
1150.8584 2920.57
1150.94428 1632
1151.03016 520.737
1151.11605 471.07
1151.20194 560.355
1151.28784 372.809
1151.37375 275.056
1151.45966 321.283
1151.54558 371.009
1151.63151 592.553
1151.71744 1407.24
1151.80338 2029.08
1151.88933 1102.8
1151.97528 341.227
1152.06124 209.144
1152.1472 272.968
1152.23318 330.234
1152.31915 345.079
1152.40514 341.176
1152.49113 303.423
1152.57713 208.286
1152.66313 114.988
1152.74914 142.232
1152.83516 260.249
1152.92118 331.714
1153.00721 350.655
1153.09324 355.167
1153.17929 355.08
1153.26533 349.934
1153.35139 342.85
1153.43745 340.847
1153.52352 331.973
1153.60959 544.226
1153.69567 8017.44
1153.78176 62201.4
1153.86785 124132
1153.95395 62194.4
1154.04006 7975.87
1154.12617 519.152
1154.21229 310.312
1154.29842 300.079
1154.38455 300.4
1154.47069 302.374
1154.55683 325.487
1154.64298 346.785
1154.72914 352.557
1154.81531 349.2
1154.90148 339.075
1154.98765 464.967
1155.07384 684.324
1155.16003 532.488
1155.24622 373.889
1155.33243 330.906
1155.41864 306.423
1155.50485 326.277
1155.59107 334.55
1155.6773 274.772
1155.76354 200.591
1155.84978 248.984
1155.93603 321.082
1156.02228 346.07
1156.10854 350.976
1156.19481 352.102
1156.28108 408.136
1156.36736 2209.12
1156.45365 15284.6
1156.53994 30246.8
1156.62624 15299.8
1156.71255 2219.01
1156.79886 410.226
1156.88518 352.117
1156.9715 355.22
1157.05783 353.751
1157.14417 332.279
1157.23052 308.128
1157.31687 323.389
1157.40322 331.957
1157.48959 334.758
1157.57596 345.506
1157.66233 337.587
1157.74872 286.657
1157.83511 224.914
1157.9215 263.231
1158.0079 328.273
1158.09431 353.029
1158.18073 357.253
1158.26715 358.445
1158.35358 356.975
1158.44001 341.698
1158.52645 328.113
1158.6129 343.21
1158.69936 355.448
1158.78582 353.871
1158.87228 451.52
1158.95876 4379.38
1159.04524 36295.2
1159.13172 98522.1
1159.21822 101839
1159.30471 39237.2
1159.39122 4840.85
1159.47773 484.566
1159.56425 341.656
1159.65078 319.943
1159.73731 297.121
1159.82384 324.803
1159.91039 350.036
1159.99694 345.394
1160.0835 329.775
1160.17006 331.724
1160.25663 322.518
1160.34321 277.518
1160.42979 262.999
1160.51638 314.576
1160.60298 347.022
1160.68958 339.321
1160.77619 321.714
1160.8628 329.332
1160.94942 347.807
1161.03605 356.461
1161.12269 353.596
1161.20933 343.697
1161.29598 340.391
1161.38263 333.793
1161.46929 319.328
1161.55596 332.893
1161.64263 344.091
1161.72931 343.032
1161.816 350.776
1161.90269 355.576
1161.98939 352.855
1162.0761 347.774
1162.16281 343.808
1162.24953 319.173
1162.33625 288.032
1162.42299 314.363
1162.50972 412.362
1162.59647 2798.97
1162.68322 19974.2
1162.76998 39597.1
1162.85674 19980.6
1162.94351 2812.98
1163.03029 435.81
1163.11707 358.194
1163.20386 355.971
1163.29066 358.484
1163.37746 362.91
1163.46427 360.415
1163.55109 344.421
1163.63791 334.479
1163.72474 331.848
1163.81157 323.857
1163.89842 340.35
1163.98527 354.213
1164.07212 353.823
1164.15898 351.404
1164.24585 352.877
1164.33272 353.65
1164.4196 354.877
1164.50649 355.404
1164.59339 353.744
1164.68029 354.126
1164.76719 439.811
1164.85411 3183.3
1164.94103 25337.2
1165.02795 68801.4
1165.11488 71497.7
1165.20182 27685.5
1165.28877 3487.47
1165.37572 438.536
1165.46268 355.147
1165.54964 356.553
1165.63662 347.92
1165.72359 325.153
1165.81058 308.248
1165.89757 321.011
1165.98457 338.006
1166.07157 341.914
1166.15858 349.278
1166.2456 354.184
1166.33262 355.873
1166.41965 352.878
1166.50669 348.994
1166.59373 349.534
1166.68078 337.504
1166.76784 322.179
1166.8549 337.857
1166.94197 350.718
1167.02904 350.28
1167.11613 346.367
1167.20321 341.378
1167.29031 349.594
1167.37741 356.02
1167.46452 356.395
1167.55163 355.976
1167.63875 350.763
1167.72588 341.822
1167.81302 342.522
1167.90016 348.635
1167.9873 351.939
1168.07446 356.191
1168.16162 357.378
1168.24878 351.195
1168.33596 338.284
1168.42314 332.16
1168.51032 341.878
1168.59751 352.384
1168.68471 355.859
1168.77192 352.996
1168.85913 349.907
1168.94635 353.557
1169.03357 357.302
1169.12081 357.219
1169.20804 353.95
1169.29529 346.843
1169.38254 384.787
1169.4698 1801.02
1169.55706 12046.8
1169.64433 23755.5
1169.73161 12058.5
1169.81889 1820.56
1169.90618 402.402
1169.99348 355.956
1170.08078 354.806
1170.16809 351.366
1170.25541 347.519
1170.34273 345.569
1170.43006 345.83
1170.5174 345.562
1170.60474 344.938
1170.69209 351.329
1170.77944 355.552
1170.8668 354.617
1170.95417 345.686
1171.04155 334.088
1171.12893 343.766
1171.21632 355.08
1171.30371 407.077
1171.39111 2016.59
1171.47852 14847.7
1171.56593 38990.8
1171.65335 38976.4
1171.74078 14832.9
1171.82821 2007.74
1171.91565 396.989
1172.0031 352.709
1172.09055 356.363
1172.17801 355.425
1172.26548 343.203
1172.35295 329.332
1172.44043 342.628
1172.52792 355.161
1172.61541 356.513
1172.70291 355.044
1172.79041 351.154
1172.87793 345.782
1172.96544 348.38
1173.05297 350.015
1173.1405 348.942
1173.22804 348.828
1173.31558 354.048
1173.40313 356.758
1173.49069 352.813
1173.57826 343.47
1173.66583 339.827
1173.7534 344.988
1173.84099 332.402
1173.92858 308.47
1174.01618 313.487
1174.10378 323.578
1174.19139 318.365
1174.27901 326.622
1174.36663 340.288
1174.45426 350.769
1174.54189 354.952
1174.62954 354.998
1174.71719 353.169
1174.80484 350.042
1174.8925 349.165
1174.98017 350.921
1175.06785 352.376
1175.15553 351.163
1175.24322 343.456
1175.33091 327.93
1175.41861 320.219
1175.50632 330.664
1175.59404 342.477
1175.68176 346.703
1175.76948 347.098
1175.85722 348.166
1175.94496 349.118
1176.03271 349.134
1176.12046 348.767
1176.20822 348.16
1176.29599 347.451
1176.38376 347.137
1176.47154 346.612
1176.55933 344.098
1176.64712 341.098
1176.73492 342.975
1176.82273 364.974
1176.91054 987.912
1176.99836 5487.09
1177.08618 10628.1
1177.17402 5483.89
1177.26186 983.855
1177.3497 355.684
1177.43755 326.083
1177.52541 316.132
1177.61328 300.787
1177.70115 297.663
1177.78903 298.455
1177.87691 312.827
1177.9648 331.164
1178.0527 338.416
1178.14061 339.051
1178.22852 336.691
1178.31644 324.775
1178.40436 312.045
1178.49229 343.89
1178.58023 998.534
1178.66817 6138.31
1178.75612 15815.1
1178.84408 15818.2
1178.93204 6142.38
1179.02001 1001.06
1179.10799 355.581
1179.19597 334.785
1179.28396 333.826
1179.37196 331.218
1179.45996 316.346
1179.54797 297.6
1179.63599 308.378
1179.72401 317.726
1179.81204 315.393
1179.90008 323.221
1179.98812 328.553
1180.07617 328.08
1180.16422 329.099
1180.25228 329.767
1180.34035 328.627
1180.42843 327.077
1180.51651 327.444
1180.6046 327.614
1180.69269 326.175
1180.7808 323.365
1180.8689 320.146
1180.95702 320.379
1181.04514 323.488
1181.13327 324.052
1181.2214 318.691
1181.30954 310.894
1181.39769 314.042
1181.48584 318.755
1181.574 318.934
1181.66217 314.951
1181.75035 285.572
1181.83853 247.67
1181.92671 269.955
1182.01491 298.1
1182.10311 287.668
1182.19131 273.352
1182.27953 296.51
1182.36775 315.518
1182.45597 316.653
1182.54421 312.476
1182.63245 309.504
1182.72069 308.09
1182.80895 312.603
1182.89721 316.603
1182.98547 316.511
1183.07374 315.206
1183.16202 315.742
1183.25031 315.999
1183.3386 315.688
1183.4269 315.462
1183.51521 313.665
1183.60352 311.038
1183.69184 311.192
1183.78016 309.604
1183.86849 306.792
1183.95683 309.85
1184.04518 312.18
1184.13353 309.295
1184.22189 291.705
1184.31025 271.16
1184.39862 286.795
1184.487 304.139
1184.57539 307.339
1184.66378 302.041
1184.75218 293.668
1184.84058 295.37
1184.92899 398.533
1185.01741 1249.66
1185.10583 2882.92
1185.19426 2905
1185.2827 1284.67
1185.37115 417.923
1185.4596 307.742
1185.54805 304.888
1185.63652 305.252
1185.72499 304.506
1185.81346 302.929
1185.90195 300.079
1185.99044 299.905
1186.07894 301.924
1186.16744 302.845
1186.25595 302.945
1186.34447 308.093
1186.43299 505.703
1186.52152 2116.32
1186.61005 5162.12
1186.6986 5165.21
1186.78715 2120.81
1186.8757 500.57
1186.96427 300.879
1187.05284 297.2
1187.14141 296.511
1187.23 296.467
1187.31858 296.845
1187.40718 296.245
1187.49578 290.287
1187.58439 269.231
1187.67301 251.012
1187.76163 271.886
1187.85026 289.411
1187.9389 290.747
1188.02754 288.458
1188.11619 273.16
1188.20484 255.864
1188.2935 269.709
1188.38217 278.097
1188.47085 275.831
1188.55953 276.762
1188.64822 285.486
1188.73691 290.782
1188.82562 290.874
1188.91432 289.564
1189.00304 288.786
1189.09176 284.889
1189.18049 274.839
1189.26922 271.279
1189.35796 281.036
1189.44671 287.235
1189.53547 288.281
1189.62423 288.177
1189.713 287.004
1189.80177 285.477
1189.89055 285.605
1189.97934 285.74
1190.06814 284.793
1190.15694 280.845
1190.24574 274.029
1190.33456 274.552
1190.42338 280.689
1190.51221 282.792
1190.60104 281.203
1190.68988 279.428
1190.77873 276.364
1190.86758 273.517
1190.95644 274.602
1191.04531 275.156
1191.13419 275.568
1191.22307 277.079
1191.31195 276.729
1191.40085 277.976
1191.48975 279.428
1191.57866 279.474
1191.66757 278.153
1191.75649 272.843
1191.84542 266.819
1191.93435 270.333
1192.02329 274.702
1192.11224 275.983
1192.20119 276.451
1192.29015 276.394
1192.37912 275.92
1192.46809 274.811
1192.55707 273.307
1192.64606 272.932
1192.73505 271.996
1192.82405 270.759
1192.91306 272.107
1193.00207 272.959
1193.09109 272.003
1193.18012 270.366
1193.26915 269.06
1193.35819 261.934
1193.44724 249.421
1193.53629 251.582
1193.62535 290.639
1193.71442 527.079
1193.80349 965.708
1193.89257 966.933
1193.98166 530.602
1194.07075 298.206
1194.15985 268.428
1194.24896 267.166
1194.33807 265.26
1194.42719 262.253
1194.51632 261.901
1194.60545 262.246
1194.69459 263.332
1194.78374 264.455
1194.87289 265.67
1194.96205 310.789
1195.05122 690.212
1195.14039 1428.51
1195.22957 1455.89
1195.31875 716.247
1195.40795 312.552
1195.49715 256.578
1195.58635 251.639
1195.67557 254.45
1195.76479 254.533
1195.85401 254.624
1195.94324 257.577
1196.03248 258.809
1196.12173 258.264
1196.21098 256.533
1196.30024 252.445
1196.38951 250.229
1196.47878 254.101
1196.56806 305.159
1196.65735 780.607
1196.74664 2465.71
1196.83594 4960.8
1196.92525 5363.55
1197.01456 2805.92
1197.10388 1114.2
1197.1932 820.477
1197.28254 2039.45
1197.37188 4108.02
1197.46122 8086.91
1197.55057 12949.3
1197.63993 6473.69
1197.7293 1022.87
1197.81867 274.906
1197.90805 251.436
1197.99744 251.039
1198.08683 265.579
1198.17623 739.205
1198.26564 4169.14
1198.35505 8110.02
1198.44447 4230.8
1198.5339 789.663
1198.62333 346.686
1198.71277 2507.03
1198.80221 18382.2
1198.89167 36544.3
1198.98113 18392.7
1199.07059 2505.62
1199.16007 302.292
1199.24955 233.707
1199.33903 240.552
1199.42852 243.927
1199.51802 243.648
1199.60753 240.51
1199.69704 250.553
1199.78656 705.589
1199.87609 4419.27
1199.96562 12132.4
1200.05516 13254.7
1200.14471 5401.06
1200.23426 850.582
1200.32382 266.357
1200.41339 365.221
1200.50296 4253.22
1200.59254 32372.5
1200.68213 64507.1
1200.77172 32366.9
1200.86132 4244.01
1200.95093 357.408
1201.04054 236.483
1201.13016 235.346
1201.21979 233.22
1201.30942 229.425
1201.39906 229.517
1201.4887 232.12
1201.57836 233.764
1201.66802 232.398
1201.75768 223.106
1201.84736 211.184
1201.93704 217.273
1202.02673 228.642
1202.11642 282.074
1202.20612 1836.06
1202.29583 13063.3
1202.38554 25895.3
1202.47526 13064.3
1202.56499 1833.39
1202.65472 276.596
1202.74446 229.449
1202.83421 368.026
1202.92396 4681.63
1203.01372 35857.7
1203.10349 71498.1
1203.19326 35912.2
1203.28304 4772.68
1203.37283 404.334
1203.46262 226.191
1203.55242 218.758
1203.64223 207.073
1203.73205 185.897
1203.82187 183.607
1203.91169 200.893
1204.00153 210.083
1204.09137 224.652
1204.18122 299.38
1204.27107 391.177
1204.36093 377.888
1204.4508 386.137
1204.54067 298.295
1204.63055 228.344
1204.72044 218.753
1204.81034 217.689
1204.90024 215.535
1204.99015 205.016
1205.08006 195.136
1205.16998 205.726
1205.25991 215.829
1205.34984 265.683
1205.43979 1779.6
1205.52973 12720.3
1205.61969 25224.7
1205.70965 12720.6
1205.79962 1778.82
1205.88959 263.507
1205.97957 214.223
1206.06956 213.585
1206.15956 213.137
1206.24956 213.177
1206.33957 211.96
1206.42958 207.452
1206.51961 203.971
1206.60963 207.141
1206.69967 209.384
1206.78971 210.276
1206.87976 209.231
1206.96982 204.997
1207.05988 202.325
1207.14995 204.642
1207.24002 205.36
1207.33011 203.181
1207.4202 198.727
1207.51029 200.724
1207.60039 205.392
1207.6905 206.963
1207.78062 205.956
1207.87074 204.517
1207.96087 204.266
1208.05101 199.348
1208.14115 192.115
1208.2313 196.276
1208.32146 202.909
1208.41162 203.556
1208.50179 201.83
1208.59197 203.189
1208.68215 204.439
1208.77234 204.114
1208.86254 203.474
1208.95274 203.169
1209.04295 197.076
1209.13317 188.351
1209.22339 193.373
1209.31362 201.113
1209.40386 203.264
1209.4941 203.169
1209.58435 203.024
1209.67461 203.682
1209.76487 203.284
1209.85515 198.231
1209.94542 191.754
1210.03571 195.862
1210.126 201.692
1210.2163 203.033
1210.3066 202.733
1210.39691 203.023
1210.48723 203.218
1210.57756 202.99
1210.66789 202.602
1210.75822 202.8
1210.84857 202.934
1210.93892 202.278
1211.02928 201.072
1211.11965 200.53
1211.21002 197.875
1211.3004 190.046
1211.39078 186.523
1211.48117 194.736
1211.57157 199.828
1211.66198 200.071
1211.75239 235.977
1211.84281 1349.85
1211.93324 9407.82
1212.02367 18953
1212.11411 20214
1212.20455 87792.4
1212.29501 173116
1212.38547 86636.2
1212.47593 11002.4
1212.56641 536.995
1212.65689 202.221
1212.74737 200.089
1212.83787 211.536
1212.92837 559.266
1213.01887 3075.48
1213.10939 5959.62
1213.19991 3101.27
1213.29043 714.179
1213.38097 4381.76
1213.47151 33490.7
1213.56206 66778.8
1213.65261 33488.8
1213.74317 4359.18
1213.83374 326.361
1213.92431 196.473
1214.01489 196.874
1214.10548 207.374
1214.19608 222.817
1214.28668 221.499
1214.37729 221.424
1214.4679 208.087
1214.55852 202.394
1214.64915 344.1
1214.73979 1373.88
1214.83043 2547.54
1214.92108 1367.67
1215.01173 341.517
1215.1024 201.765
1215.19307 242.246
1215.28374 1662.06
1215.37442 11917.4
1215.46511 23637.2
1215.55581 11917.3
1215.64651 1662.59
1215.73722 243.458
1215.82794 197.975
1215.91866 197.535
1216.00939 197.417
1216.10013 197.124
1216.19087 196.417
1216.28162 195.487
1216.37238 194.958
1216.46314 195.135
1216.55392 195.507
1216.64469 194.933
1216.73548 193.129
1216.82627 190.528
1216.91707 191.817
1217.00787 196.016
1217.09868 253.15
1217.1895 656.707
1217.28032 1117.41
1217.37116 656.626
1217.46199 253.415
1217.55284 197.512
1217.64369 195.649
1217.73455 210.072
1217.82542 672.62
1217.91629 4024.28
1218.00717 7857.48
1218.09805 4024.34
1218.18895 670.663
1218.27985 207.312
1218.37075 192.851
1218.46166 192.594
1218.55258 192.274
1218.64351 192.176
1218.73444 192.318
1218.82538 191.526
1218.91633 190.009
1219.00729 189.797
1219.09825 189.584
1219.18921 189.978
1219.28019 190.791
1219.37117 261.455
1219.46216 2505.77
1219.55315 18714.6
1219.64415 37237.8
1219.73516 18714.7
1219.82617 2506.51
1219.9172 262.867
1220.00822 191.888
1220.09926 192.234
1220.1903 210.059
1220.28135 341.628
1220.37241 493.642
1220.46347 343.167
1220.55454 210.862
1220.64561 192.352
1220.7367 191.743
1220.82779 195.77
1220.91888 323.43
1221.00998 1245.27
1221.10109 2298.67
1221.19221 1244.93
1221.28334 322.021
1221.37447 192.439
1221.4656 187.457
1221.55675 187.561
1221.6479 187.07
1221.73905 185.315
1221.83022 185.31
1221.92139 187.649
1222.01257 189.687
1222.10375 189.765
1222.19494 189.098
1222.28614 189.589
1222.37735 189.433
1222.46856 188.219
1222.55978 188.063
1222.651 425.596
1222.74224 7923.92
1222.83348 62091.8
1222.92472 123996
1223.01598 62091.8
1223.10723 7924.88
1223.1985 429.87
1223.28977 190.82
1223.38105 188.287
1223.47234 186.647
1223.56363 185.447
1223.65494 184.726
1223.74624 184.303
1223.83756 187.421
1223.92888 191.237
1224.02021 196.311
1224.11154 230.984
1224.20288 272.107
1224.29423 228.7
1224.38558 191.376
1224.47695 185.86
1224.56832 187.55
1224.65969 217.883
1224.75107 431.283
1224.84246 679.137
1224.93386 442.742
1225.02526 225.822
1225.11667 189.741
1225.20809 186.326
1225.29951 185.086
1225.39094 184.948
1225.48238 279.506
1225.57382 3217.23
1225.66527 24437.6
1225.75673 48689.4
1225.84819 24437.9
1225.93966 3217.12
1226.03114 279.397
1226.12263 185.37
1226.21412 185.228
1226.30562 185.645
1226.39712 185.59
1226.48863 185.262
1226.58015 184.668
1226.67168 183.83
1226.76321 184.035
1226.85475 184.195
1226.94629 182.001
1227.03785 179.105
1227.12941 181.302
1227.22097 183.46
1227.31255 183.393
1227.40413 183.498
1227.49571 183.611
1227.58731 183.453
1227.67891 183.761
1227.77052 183.816
1227.86213 183.468
1227.95375 183.228
1228.04538 183.484
1228.13702 183.648
1228.22866 183.561
1228.32031 185.532
1228.41196 455.299
1228.50362 8861.98
1228.59529 69554.8
1228.68697 138897
1228.77865 69535.8
1228.87034 8850.88
1228.96204 452.637
1229.05374 187.477
1229.14545 209.93
1229.23717 255.514
1229.32889 255.203
1229.42062 208.3
1229.51236 182.622
1229.6041 180.599
1229.69586 181.664
1229.78761 181.883
1229.87938 181.761
1229.97115 181.274
1230.06293 180.563
1230.15471 180.587
1230.24651 180.95
1230.33831 180.987
1230.43011 181.048
1230.52192 181.07
1230.61374 180.975
1230.70557 180.852
1230.7974 180.657
1230.88924 180.42
1230.98109 180.427
1231.07295 180.41
1231.16481 180.138
1231.25667 179.845
1231.34855 179.915
1231.44043 179.959
1231.53232 179.9
1231.62421 179.741
1231.71612 179.336
1231.80802 178.991
1231.89994 179.228
1231.99186 179.396
1232.08379 179.344
1232.17573 179.361
1232.26767 195.057
1232.35962 735.949
1232.45158 6153.56
1232.54354 24282.3
1232.63551 36538.9
1232.72749 16877.4
1232.81947 2218.7
1232.91147 241.285
1233.00346 178.397
1233.09547 177.527
1233.18748 177.439
1233.2795 176.965
1233.37152 176.257
1233.46356 176.924
1233.5556 178.558
1233.64764 180.586
1233.73969 180.524
1233.83175 178.496
1233.92382 177.361
1234.0159 177.139
1234.10798 177.544
1234.20006 181.499
1234.29216 189.035
1234.38426 188.893
1234.47637 181.091
1234.56848 176.952
1234.6606 176.386
1234.75273 177.012
1234.84487 274.234
1234.93701 3390.04
1235.02916 28240.8
1235.12131 75127.6
1235.21348 75295.6
1235.30565 28387.5
1235.39782 3409.81
1235.49001 274.076
1235.5822 176.035
1235.67439 175.217
1235.7666 175.064
1235.85881 174.943
1235.95103 174.916
1236.04325 174.893
1236.13548 175.017
1236.22772 175.167
1236.31997 174.84
1236.41222 174.733
1236.50448 174.806
1236.59675 174.139
1236.68902 173.415
1236.7813 173.531
1236.87359 173.675
1236.96588 173.548
1237.05818 173.524
1237.15049 173.44
1237.2428 173.362
1237.33512 173.347
1237.42745 173.283
1237.51979 173.172
1237.61213 173.06
1237.70448 172.945
1237.79683 172.816
1237.88919 172.709
1237.98156 172.608
1238.07394 172.535
1238.16632 172.582
1238.25871 172.652
1238.35111 172.68
1238.44351 172.667
1238.53593 172.571
1238.62834 172.49
1238.72077 172.617
1238.8132 172.724
1238.90564 172.768
1238.99808 172.793
1239.09054 172.799
1239.18299 172.803
1239.27546 172.879
1239.36793 173.285
1239.46041 173.787
1239.5529 173.44
1239.64539 173.01
1239.73789 173.291
1239.8304 220.915
1239.92292 1703.23
1240.01544 12403.3
1240.10797 24627.7
1240.2005 12399.6
1240.29304 1701.25
1240.38559 220.665
1240.47815 173.208
1240.57071 172.749
1240.66328 172.633
1240.75586 172.834
1240.84844 172.994
1240.94103 172.928
1241.03363 172.851
1241.12623 173.685
1241.21884 178.917
1241.31146 184.79
1241.40408 178.963
1241.49672 173.856
1241.58935 173.155
1241.682 173.156
1241.77465 173.157
1241.86731 173.145
1241.95998 174.003
1242.05265 279.2
1242.14533 3564.98
1242.23802 27308.2
1242.33071 54451.3
1242.42341 27330.8
1242.51612 3596.59
1242.60884 322.56
1242.70156 195.139
1242.79429 175.922
1242.88702 173.394
1242.97976 173.327
1243.07251 173.339
1243.16527 173.35
1243.25803 173.361
1243.3508 173.373
1243.44358 173.387
1243.53636 173.402
1243.62915 173.68
1243.72195 181.978
1243.81476 241.908
1243.90757 310.413
1244.00039 241.949
1244.09321 182.032
1244.18604 173.688
1244.27888 173.347
