# Obtained using Skycalc tool from ESO webpage
# Not including telescope emissivity
Wave[nm] Radiance[photons/s/m**2/micron/arsec**2]
2100 41.9726
2100.03264 59.2986
2100.06528 93.518
2100.09791 172.555
2100.13055 237.352
2100.16319 200.446
2100.19583 136.681
2100.22847 127.638
2100.26111 165.743
2100.29375 257.269
2100.3264 479.178
2100.35904 813.528
2100.39168 925.964
2100.42432 675.877
2100.45697 407.202
2100.48961 367.025
2100.52226 1230.99
2100.5549 2274.63
2100.58755 1175.35
2100.6202 230.323
2100.65284 94.0779
2100.68549 66.5065
2100.71814 43.0106
2100.75079 31.9966
2100.78344 33.2175
2100.81609 42.4782
2100.84874 49.7625
2100.88139 53.2736
2100.91404 65.3354
2100.94669 76.3418
2100.97934 78.8993
2101.01199 75.8978
2101.04465 103.675
2101.0773 158.085
2101.10995 164.437
2101.14261 391.147
2101.17526 2634.75
2101.20792 6949.1
2101.24058 7005.18
2101.27323 2793.5
2101.30589 703.868
2101.33855 439.911
2101.3712 266.66
2101.40386 432.624
2101.43652 762.305
2101.46918 538.318
2101.50184 576.444
2101.5345 866.594
2101.56716 757.289
2101.59983 880.575
2101.63249 1130.64
2101.66515 1142.1
2101.69781 1472.2
2101.73048 2476.18
2101.76314 3159.2
2101.79581 2372.42
2101.82847 1199.32
2101.86114 610.955
2101.8938 430.494
2101.92647 317.545
2101.95914 272.193
2101.99181 172.174
2102.02447 108.229
2102.05714 112.949
2102.08981 130.081
2102.12248 124.815
2102.15515 106.836
2102.18782 85.6741
2102.22049 73.4373
2102.25317 70.619
2102.28584 63.0019
2102.31851 60.7977
2102.35118 85.4862
2102.38386 139.699
2102.41653 170.174
2102.44921 147.71
2102.48188 113.045
2102.51456 230.032
2102.54724 1343.5
2102.57991 2702.37
2102.61259 1972.6
2102.64527 2034.15
2102.67795 2076.08
2102.71063 840.853
2102.7433 121.141
2102.77598 37.8419
2102.80867 52.6834
2102.84135 64.0522
2102.87403 51.0376
2102.90671 33.673
2102.93939 29.5207
2102.97208 40.2867
2103.00476 66.3267
2103.03744 114.138
2103.07013 151.991
2103.10281 120.109
2103.1355 72.8367
2103.16818 58.0673
2103.20087 95.1803
2103.23356 1082.66
2103.26625 8956.28
2103.29893 23669.3
2103.33162 23665.5
2103.36431 9299.12
2103.397 1318.8
2103.42969 106.653
2103.46238 38.0204
2103.49507 36.1728
2103.52776 56.6436
2103.56046 92.2218
2103.59315 105.286
2103.62584 100.072
2103.65854 79.2422
2103.69123 88.471
2103.72392 116.222
2103.75662 108.099
2103.78932 72.37
2103.82201 49.578
2103.85471 45.8005
2103.88741 60.7637
2103.9201 89.7991
2103.9528 112.208
2103.9855 118.352
2104.0182 81.9201
2104.0509 51.047
2104.0836 35.3243
2104.1163 26.1652
2104.149 26.9113
2104.1817 30.6235
2104.21441 29.6594
2104.24711 34.4974
2104.27981 49.9875
2104.31252 74.2204
2104.34522 102.598
2104.37793 120.395
2104.41063 118.043
2104.44334 92.1132
2104.47604 60.9484
2104.50875 37.6221
2104.54146 28.8304
2104.57417 34.976
2104.60687 45.2407
2104.63958 44.2074
2104.67229 44.2684
2104.705 61.9469
2104.73771 86.9773
2104.77042 91.0093
2104.80313 71.7187
2104.83585 64.914
2104.86856 92.8999
2104.90127 181.042
2104.93399 326.72
2104.9667 396.86
2104.99941 293.185
2105.03213 170.868
2105.06484 134.263
2105.09756 145.191
2105.13028 132.694
2105.16299 90.3196
2105.19571 73.8794
2105.22843 538.504
2105.26115 3988.78
2105.29387 8298.84
2105.32659 6087.91
2105.35931 6201.41
2105.39203 7391.56
2105.42475 3353.02
2105.45747 611.061
2105.49019 240.469
2105.52292 183.792
2105.55564 122.934
2105.58836 77.6058
2105.62109 66.0919
2105.65381 67.0293
2105.68654 49.7593
2105.71926 34.5842
2105.75199 34.8023
2105.78472 45.513
2105.81744 63.5129
2105.85017 75.8635
2105.8829 70.0053
2105.91563 64.3076
2105.94836 50.9675
2105.98109 44.5612
2106.01382 60.5338
2106.04655 114.654
2106.07928 1428.16
2106.11201 11041.3
2106.14474 22045.7
2106.17748 11080.8
2106.21021 2787.91
2106.24294 11033.1
2106.27568 21911.7
2106.30841 10991.6
2106.34115 1433.84
2106.37388 102.026
2106.40662 61.7878
2106.43936 87.4631
2106.47209 113.37
2106.50483 135.14
2106.53757 211.767
2106.57031 287.101
2106.60305 238.554
2106.63579 156.035
2106.66853 219.944
2106.70127 2947.53
2106.73401 24329.9
2106.76675 62121.6
2106.7995 61256.7
2106.83224 28830.9
2106.86498 6627.58
2106.89773 693.867
2106.93047 95.8371
2106.96322 50.6359
2106.99596 34.0621
2107.02871 29.9926
2107.06145 40.2963
2107.0942 73.6372
2107.12695 106.506
2107.1597 90.5893
2107.19245 51.463
2107.22519 31.6739
2107.25794 28.4228
2107.29069 32.2179
2107.32345 49.7012
2107.3562 83.9175
2107.38895 97.7093
2107.4217 71.8993
2107.45445 63.7629
2107.48721 90.6804
2107.51996 108.81
2107.55271 92.6461
2107.58547 90.304
2107.61822 99.7204
2107.65098 74.0334
2107.68374 42.8883
2107.71649 30.6198
2107.74925 27.3405
2107.78201 30.984
2107.81477 48.8123
2107.84752 86.5109
2107.88028 111.941
2107.91304 92.7927
2107.9458 58.8475
2107.97856 36.8934
2108.01133 30.1345
2108.04409 35.7597
2108.07685 60.1906
2108.10961 98.7567
2108.14238 110.863
2108.17514 101.383
2108.2079 110.127
2108.24067 105.234
2108.27344 82.7028
2108.3062 82.6608
2108.33897 102.134
2108.37173 117.892
2108.4045 103.148
2108.43727 62.8008
2108.47004 35.4883
2108.50281 26.8067
2108.53558 25.8209
2108.56835 30.2069
2108.60112 48.4094
2108.63389 83.4004
2108.66666 98.9064
2108.69943 75.7826
2108.7322 55.7299
2108.76498 43.5627
2108.79775 35.7965
2108.83052 39.6902
2108.8633 68.2416
2108.89607 140.049
2108.92885 200.585
2108.96163 154.199
2108.9944 78.2485
2109.02718 42.7291
2109.05996 35.3752
2109.09274 40.2775
2109.12551 53.1749
2109.15829 72.4789
2109.19107 98.6596
2109.22385 99.2144
2109.25663 62.2184
2109.28942 33.9377
2109.3222 26.9876
2109.35498 28.291
2109.38776 30.9432
2109.42054 38.085
2109.45333 63.9901
2109.48611 100.517
2109.5189 137.53
2109.55168 1121.46
2109.58447 8611.07
2109.61726 20227.6
2109.65004 23894
2109.68283 25071.3
2109.71562 11216.9
2109.74841 1533.68
2109.78119 333.531
2109.81398 496.934
2109.84677 760.523
2109.87956 794.707
2109.91235 520.8
2109.94515 268.993
2109.97794 149.163
2110.01073 100.393
2110.04352 97.7057
2110.07632 114.369
2110.10911 102.239
2110.1419 64.5093
2110.1747 39.933
2110.2075 33.3834
2110.24029 34.5954
2110.27309 42.5353
2110.30588 73.0168
2110.33868 229.337
2110.37148 2828.58
2110.40428 21002.4
2110.43708 41698.9
2110.46988 20844.7
2110.50268 2632.06
2110.53548 111.707
2110.56828 38.9174
2110.60108 128.071
2110.63388 2560.31
2110.66669 20089.5
2110.69949 40176.9
2110.73229 20232.7
2110.7651 2632.49
2110.7979 129.655
2110.83071 30.1944
2110.86351 22.6621
2110.89632 21.5311
2110.92912 25.2053
2110.96193 39.7582
2110.99474 72.5036
2111.02755 114.253
2111.06036 155.769
2111.09317 181.235
2111.12598 130.235
2111.15879 66.9733
2111.1916 43.2052
2111.22441 41.4183
2111.25722 41.3842
2111.29003 46.3643
2111.32284 65.1259
2111.35566 77.9352
2111.38847 64.1229
2111.42129 52.7034
2111.4541 230.417
2111.48692 5892.75
2111.51973 47297.1
2111.55255 102402
2111.58537 99944
2111.61818 102955
2111.651 47666.4
2111.68382 6083.48
2111.71664 469.876
2111.74946 513.898
2111.78228 1032.38
2111.8151 1642.51
2111.84792 1646.38
2111.88074 1040.27
2111.91356 512.308
2111.94638 273.223
2111.97921 193.463
2112.01203 175.986
2112.04485 159.145
2112.07768 123.722
2112.1105 88.5658
2112.14333 68.4199
2112.17616 58.8196
2112.20898 50.2451
2112.24181 42.2249
2112.27464 40.8573
2112.30747 50.2524
2112.34029 68.9967
2112.37312 84.0933
2112.40595 96.0375
2112.43878 144.944
2112.47161 302.996
2112.50444 604.752
2112.53728 809.634
2112.57011 627.373
2112.60294 317.534
2112.63577 146.225
2112.66861 91.0815
2112.70144 79.4015
2112.73428 81.1398
2112.76711 114.811
2112.79995 160.256
2112.83278 132.748
2112.86562 75.3591
2112.89846 45.4679
2112.9313 36.0948
2112.96413 32.8679
2112.99697 27.8353
2113.02981 27.0352
2113.06265 29.3874
2113.09549 25.1571
2113.12833 19.353
2113.16117 19.32
2113.19402 25.4295
2113.22686 40.1568
2113.2597 81.9096
2113.29255 140.832
2113.32539 140.087
2113.35823 81.5248
2113.39108 41.8503
2113.42392 32.7403
2113.45677 32.8176
2113.48962 40.5512
2113.52246 54.6301
2113.55531 54.6254
2113.58816 41.2042
2113.62101 28.7747
2113.65386 17.925
2113.68671 11.9809
2113.71956 11.2953
2113.75241 12.3195
2113.78526 14.5865
2113.81811 20.5737
2113.85096 27.7661
2113.88381 30.0886
2113.91667 26.73
2113.94952 26.9093
2113.98237 41.1596
2114.01523 86.6137
2114.04808 139.693
2114.08094 121.641
2114.1138 67.0526
2114.14665 36.8844
2114.17951 26.9473
2114.21237 21.0654
2114.24523 16.9039
2114.27809 16.9796
2114.31094 19.3125
2114.3438 19.7999
2114.37666 15.7947
2114.40953 12.6694
2114.44239 11.6993
2114.47525 13.1859
2114.50811 19.3688
2114.54097 25.8929
2114.57384 24.4371
2114.6067 20.1466
2114.63956 21.3721
2114.67243 29.7709
2114.70529 46.8768
2114.73816 76.5847
2114.77103 127.569
2114.80389 158.88
2114.83676 119.847
2114.86963 63.9556
2114.9025 43.7661
2114.93537 44.0953
2114.96824 39.306
2115.00111 35.0222
2115.03398 40.5743
2115.06685 59.4533
2115.09972 105.707
2115.13259 189.062
2115.16546 232.102
2115.19834 160.913
2115.23121 80.8906
2115.26408 51.8916
2115.29696 56.0779
2115.32983 65.7378
2115.36271 56.5862
2115.39559 39.2291
2115.42846 29.931
2115.46134 31.5386
2115.49422 126.493
2115.5271 2841.09
2115.55997 24243
2115.59285 64527.2
2115.62573 64666
2115.65861 24407.6
2115.69149 2960.88
2115.72437 260.939
2115.75726 129.196
2115.79014 70.7807
2115.82302 40.6177
2115.8559 30.3674
2115.88879 28.0625
2115.92167 29.7105
2115.95456 31.1038
2115.98744 33.9921
2116.02033 39.4357
2116.05321 49.8128
2116.0861 78.535
2116.11899 135.275
2116.15188 227.402
2116.18477 368.328
2116.21765 457.549
2116.25054 356.224
2116.28343 215.333
2116.31632 166.192
2116.34921 146.694
2116.38211 91.7837
2116.415 48.7548
2116.44789 37.064
2116.48078 46.0741
2116.51368 70.1213
2116.54657 85.1971
2116.57947 66.2561
2116.61236 40.7212
2116.64526 28.8009
2116.67815 22.6541
2116.71105 16.3114
2116.74395 12.0603
2116.77684 10.732
2116.80974 11.9413
2116.84264 16.2513
2116.87554 24.4981
2116.90844 40.2034
2116.94134 65.6669
2116.97424 78.6033
2117.00714 59.7041
2117.04004 45.0526
2117.07294 64.0064
2117.10585 94.1599
2117.13875 81.3386
2117.17165 47.9484
2117.20456 29.3793
2117.23746 26.1838
2117.27037 29.2581
2117.30327 40.0907
2117.33618 63.1877
2117.36909 91.0875
2117.40199 94.1079
2117.4349 60.8572
2117.46781 32.4933
2117.50072 27.2167
2117.53363 342.352
2117.56654 10378.1
2117.59945 90360.2
2117.63236 240907
2117.66527 240904
2117.69818 90377.8
2117.73109 10420.3
2117.76401 404.489
2117.79692 114.231
2117.82983 126.574
2117.86275 124.908
2117.89566 117.497
2117.92858 83.5055
2117.9615 57.0297
2117.99441 49.7607
2118.02733 49.6276
2118.06025 55.0999
2118.09316 68.0554
2118.12608 84.5351
2118.159 80.644
2118.19192 78.7248
2118.22484 105.241
2118.25776 139.542
2118.29068 137.827
2118.3236 126.981
2118.35653 142.621
2118.38945 192.639
2118.42237 287.227
2118.4553 472.206
2118.48822 914.907
2118.52115 1928.4
2118.55407 3234.84
2118.587 3414.2
2118.61992 2218.46
2118.65285 1130.29
2118.68578 644.092
2118.7187 410.803
2118.75163 253.279
2118.78456 162.117
2118.81749 117.274
2118.85042 91.9906
2118.88335 74.8053
2118.91628 60.9498
2118.94921 51.0206
2118.98214 45.5402
2119.01508 43.2673
2119.04801 45.7286
2119.08094 55.264
2119.11388 80.1146
2119.14681 113.56
2119.17975 112.693
2119.21268 82.4084
2119.24562 53.291
2119.27855 40.3853
2119.31149 39.9789
2119.34443 39.3148
2119.37737 36.9698
2119.4103 43.374
2119.44324 62.604
2119.47618 76.0074
2119.50912 65.4438
2119.54206 64.5907
2119.575 97.9459
2119.60795 139.52
2119.64089 144.068
2119.67383 158.256
2119.70677 261.639
2119.73972 485.086
2119.77266 666.223
2119.80561 560.049
2119.83855 317.765
2119.8715 163.586
2119.90444 103.626
2119.93739 88.4315
2119.97034 102.322
2120.00328 157.219
2120.03623 298.755
2120.06918 498.281
2120.10213 528.812
2120.13508 342.12
2120.16803 184.551
2120.20098 144.109
2120.23393 157.977
2120.26688 165.985
2120.29984 206.766
2120.33279 364.55
2120.36574 581.866
2120.3987 583.23
2120.43165 355.974
2120.46461 176.723
2120.49756 123.074
2120.53052 128.009
2120.56347 114.673
2120.59643 71.9334
2120.62939 43.1443
2120.66235 34.7619
2120.6953 32.1505
2120.72826 27.1026
2120.76122 21.6027
2120.79418 18.3829
2120.82714 15.9423
2120.8601 15.291
2120.89307 17.2045
2120.92603 22.3726
2120.95899 39.2965
2120.99195 78.7476
2121.02492 113.797
2121.05788 100.935
2121.09085 67.8361
2121.12381 40.8945
2121.15678 30.6558
2121.18974 30.5063
2121.22271 30.9883
2121.25568 38.1884
2121.28864 65.7808
2121.32161 130.305
2121.35458 202.113
2121.38755 195.922
2121.42052 129.466
2121.45349 95.7067
2121.48646 105.72
2121.51943 99.2025
2121.5524 60.4069
2121.58538 32.4766
2121.61835 23.7319
2121.65132 21.992
2121.6843 19.8287
2121.71727 17.0565
2121.75025 14.6406
2121.78322 12.7734
2121.8162 14.0315
2121.84917 22.3943
2121.88215 34.4179
2121.91513 40.9995
2121.94811 59.8562
2121.98108 89.7898
2122.01406 82.3438
2122.04704 46.8528
2122.08002 23.7707
2122.113 16.3145
2122.14598 14.339
2122.17897 11.8241
2122.21195 9.14185
2122.24493 8.05256
2122.27791 7.9977
2122.3109 8.60849
2122.34388 10.8615
2122.37687 16.4309
2122.40985 26.8736
2122.44284 51.5717
2122.47582 82.5813
2122.50881 75.6675
2122.5418 41.1246
2122.57478 19.6544
2122.60777 14.6115
2122.64076 15.7682
2122.67375 20.3779
2122.70674 25.4135
2122.73973 22.058
2122.77272 15.4462
2122.80571 12.0556
2122.8387 10.9134
2122.8717 11.9487
2122.90469 18.1938
2122.93768 39.3668
2122.97068 72.3536
2123.00367 77.3004
2123.03666 46.0452
2123.06966 22.7103
2123.10266 18.271
2123.13565 229.565
2123.16865 6906.08
2123.20165 56093.1
2123.23464 119674
2123.26764 74842.4
2123.30064 16862.8
2123.33364 1472.43
2123.36664 50.5367
2123.39964 14.7131
2123.43264 28.9904
2123.46564 62.1245
2123.49865 88.8135
2123.53165 70.1502
2123.56465 39.2016
2123.59766 23.004
2123.63066 17.4135
2123.66366 14.8738
2123.69667 12.6809
2123.72968 11.7707
2123.76268 12.8164
2123.79569 15.0117
2123.82869 16.5967
2123.8617 17.3892
2123.89471 19.6175
2123.92772 27.5775
2123.96073 50.3247
2123.99374 83.1168
2124.02675 88.312
2124.05976 61.6985
2124.09277 43.509
2124.12578 41.4508
2124.15879 45.3483
2124.19181 53.1385
2124.22482 66.9156
2124.25783 90.3177
2124.29085 131.441
2124.32386 214.019
2124.35688 403.002
2124.3899 829.58
2124.42291 1454.52
2124.45593 1696.46
2124.48895 1230.36
2124.52196 685.494
2124.55498 395.467
2124.588 269.653
2124.62102 223.116
2124.65404 253.351
2124.68706 424.723
2124.72008 748.613
2124.7531 921.164
2124.78613 671.318
2124.81915 344.966
2124.85217 568.109
2124.88519 13041.6
2124.91822 110485
2124.95124 276024
2124.98427 248314
2125.01729 86238.7
2125.05032 9671.18
2125.08335 361.495
2125.11637 44.1587
2125.1494 26.5681
2125.18243 23.7526
2125.21546 24.4249
2125.24849 21.0624
2125.28152 15.8382
2125.31455 12.8216
2125.34758 11.9403
2125.38061 11.6503
2125.41364 11.2246
2125.44667 10.9718
2125.47971 12.2478
2125.51274 18.6521
2125.54577 39.2005
2125.57881 65.1276
2125.61184 60.1974
2125.64488 33.2057
2125.67791 15.7291
2125.71095 9.91144
2125.74399 8.21789
2125.77703 7.5221
2125.81006 6.44941
2125.8431 5.77595
2125.87614 6.38979
2125.90918 8.5521
2125.94222 10.6454
2125.97526 10.6791
2126.0083 11.8302
2126.04134 17.9484
2126.07439 32.2434
2126.10743 53.7018
2126.14047 60.0184
2126.17351 37.1624
2126.20656 17.1326
2126.2396 10.6341
2126.27265 10.3599
2126.30569 11.6343
2126.33874 10.501
2126.37179 8.19826
2126.40483 6.80217
2126.43788 6.15421
2126.47093 6.10191
2126.50398 6.72025
2126.53703 8.07027
2126.57008 10.9626
2126.60313 19.5372
2126.63618 41.8565
2126.66923 64.8446
2126.70228 54.9985
2126.73533 30.3912
2126.76839 17.1915
2126.80144 14.6175
2126.83449 18.9747
2126.86755 32.7292
2126.9006 46.4181
2126.93366 41.2779
2126.96671 30.9438
2126.99977 26.3244
2127.03283 25.4116
2127.06589 24.3134
2127.09894 22.6513
2127.132 24.3588
2127.16506 33.9123
2127.19812 55.3695
2127.23118 71.8086
2127.26424 60.0896
2127.2973 46.2087
2127.33036 45.8729
2127.36343 53.3863
2127.39649 61.7147
2127.42955 69.2194
2127.46262 81.5833
2127.49568 102.799
2127.52874 139.391
2127.56181 208.001
2127.59487 329.252
2127.62794 491.539
2127.66101 716.406
2127.69408 1258.6
2127.72714 2430.52
2127.76021 3967.24
2127.79328 6449.92
2127.82635 8287.85
2127.85942 4115.14
2127.89249 903.194
2127.92556 734.813
2127.95863 3603.53
2127.9917 6952.97
2128.02478 3514.31
2128.05785 512.888
2128.09092 86.8475
2128.124 63.5398
2128.15707 51.6738
2128.19015 41.9358
2128.22322 36.6079
2128.2563 35.0014
2128.28937 38.4512
2128.32245 50.7628
2128.35553 59.135
2128.38861 44.4017
2128.42168 27.2221
2128.45476 20.0737
2128.48784 19.2698
2128.52092 21.1188
2128.554 20.335
2128.58708 16.0305
2128.62017 12.8672
2128.65325 12.3256
2128.68633 12.6811
2128.71941 11.892
2128.7525 10.7271
2128.78558 11.4078
2128.81867 15.8239
2128.85175 23.4927
2128.88484 34.3868
2128.91792 44.447
2128.95101 36.1031
2128.9841 21.3154
2129.01719 17.6955
2129.05027 26.474
2129.08336 32.9305
2129.11645 22.3274
2129.14954 11.2135
2129.18263 7.34824
2129.21572 7.20531
2129.24881 9.7802
2129.28191 13.3994
2129.315 13.2943
2129.34809 10.4557
2129.38119 8.90166
2129.41428 9.69936
2129.44737 16.4313
2129.48047 29.8147
2129.51356 35.5626
2129.54666 26.5803
2129.57976 19.6443
2129.61285 15.1005
2129.64595 9.33187
2129.67905 5.74007
2129.71215 4.28873
2129.74525 3.55887
2129.77835 3.19029
2129.81145 3.14321
2129.84455 3.36751
2129.87765 3.679
2129.91075 4.03644
2129.94385 4.76969
2129.97696 6.87844
2130.01006 13.4702
2130.04316 27.8918
2130.07627 39.6891
2130.10937 31.8927
2130.14248 16.3113
2130.17558 8.02364
2130.20869 5.74016
2130.2418 5.71913
2130.2749 7.54229
2130.30801 11.2573
2130.34112 13.5196
2130.37423 10.6464
2130.40734 7.80063
2130.44045 7.79514
2130.47356 9.96738
2130.50667 16.6381
2130.53978 35.5216
2130.57289 63.3797
2130.606 70.6812
2130.63912 54.6748
2130.67223 42.8724
2130.70534 29.8045
2130.73846 17.4496
2130.77157 13.327
2130.80469 16.3749
2130.83781 19.1105
2130.87092 14.9941
2130.90404 14.5196
2130.93716 17.7473
2130.97028 12.3882
2131.00339 7.20313
2131.03651 7.86492
2131.06963 11.4916
2131.10275 12.7804
2131.13587 11.5955
2131.169 11.4226
2131.20212 11.6189
2131.23524 17.2843
2131.26836 24.7537
2131.30149 20.2546
2131.33461 10.8693
2131.36773 6.04422
2131.40086 4.66356
2131.43398 4.42074
2131.46711 4.29925
2131.50024 9.51732
2131.53336 186.362
2131.56649 1909.74
2131.59962 7437.62
2131.63275 10969.2
2131.66588 4999.65
2131.699 613.771
2131.73213 23.5823
2131.76527 6.41423
2131.7984 11.55
2131.83153 21.9831
2131.86466 54.1524
2131.89779 795.259
2131.93093 6155.55
2131.96406 12284.9
2131.99719 6148.06
2132.03033 776.23
2132.06346 30.2127
2132.0966 5.84103
2132.12973 6.94076
2132.16287 10.252
2132.19601 14.2037
2132.22915 15.4766
2132.26228 15.4815
2132.29542 16.7256
2132.32856 20.9126
2132.3617 26.126
2132.39484 23.3603
2132.42798 18.491
2132.46112 22.5892
2132.49427 269.235
2132.52741 7848.99
2132.56055 62646
2132.5937 125288
2132.62684 62674.1
2132.65998 7854.01
2132.69313 254.144
2132.72627 10.2669
2132.75942 15.274
2132.79257 41.5035
2132.82571 78.9215
2132.85886 75.5875
2132.89201 38.24
2132.92516 15.0507
2132.95831 8.93993
2132.99146 7.47336
2133.02461 7.9329
2133.05776 12.0509
2133.09091 18.856
2133.12406 21.5199
2133.15721 19.7569
2133.19036 16.3359
2133.22352 11.2676
2133.25667 7.11643
2133.28982 6.01854
2133.32298 8.43241
2133.35613 13.1021
2133.38929 15.9287
2133.42245 14.8021
2133.4556 9.91229
2133.48876 6.07606
2133.52192 4.65586
2133.55508 4.79825
2133.58824 6.31635
2133.6214 9.56253
2133.65456 13.703
2133.68772 17.8738
2133.72088 22.5568
2133.75404 21.6849
2133.7872 15.1377
2133.82036 8.78595
2133.85353 5.51823
2133.88669 4.69039
2133.91985 5.15791
2133.95302 6.87148
2133.98618 9.26133
2134.01935 9.03488
2134.05251 7.57202
2134.08568 10.6986
2134.11885 18.5878
2134.15201 20.3297
2134.18518 12.171
2134.21835 6.03197
2134.25152 4.74559
2134.28469 5.7726
2134.31786 9.42148
2134.35103 13.3662
2134.3842 11.1606
2134.41737 6.52302
2134.45055 4.23009
2134.48372 3.45011
2134.51689 3.08812
2134.55007 3.17238
2134.58324 3.69593
2134.61642 4.20816
2134.64959 4.04645
2134.68277 3.59433
2134.71594 3.68434
2134.74912 4.97681
2134.7823 7.85602
