# Obtained using Skycalc tool from ESO webpage
# Not including telescope emissivity
Wave[nm] Radiance[photons/s/m**2/micron/arsec**2]
800 268.345
800.4001 227.615
800.8004 199.063
801.2009 201.521
801.601601 1050.18
802.002502 227.549
802.403604 366.833
802.804906 2657.63
803.206409 488.075
803.608112 213.393
804.010017 197.223
804.412122 217.483
804.814429 195.219
805.216937 263.115
805.619646 735.262
806.022556 202.586
806.425668 1299.45
806.828982 214.71
807.232497 188.569
807.636215 224.501
808.040134 257.342
808.444255 190.475
808.848578 302.668
809.253103 191.392
809.657831 454.857
810.062761 196.868
810.467894 703.639
810.873229 227.574
811.278767 212.688
811.684508 197.431
812.090452 199.666
812.496598 209.772
812.902948 219.859
813.309501 230.756
813.716258 229.393
814.123218 356.211
814.530381 199.818
814.937748 436.581
815.345319 207.138
815.753093 192.83
816.161072 194.242
816.569255 180.326
816.977641 196.479
817.386232 195.292
817.795028 193.629
818.204027 192.344
818.613232 201.218
819.022641 270.364
819.432254 198.83
819.842073 294.631
820.252096 201.337
820.662325 224.928
821.072759 247.893
821.483398 221.211
821.894242 221.751
822.305292 209.186
822.716548 202.516
823.128009 185.968
823.539676 198.176
823.951548 212.834
824.363627 268.157
824.775912 254.466
825.188403 249.53
825.6011 249.648
826.014004 209.021
826.427115 217.377
826.840431 221.018
827.253955 230.851
827.667685 214.336
828.081623 1037.38
828.495767 2013.76
828.910119 2952.3
829.324677 354.93
829.739443 1074.65
830.154417 2815.77
830.569598 405.042
830.984986 241.316
831.400583 1162.29
831.816387 275.78
832.232399 296.417
832.648619 233.322
833.065048 230.985
833.481684 232.641
833.898529 338.854
834.315583 232.47
834.732845 7654.8
835.150316 443.698
835.567995 2499.12
835.985884 251.64
836.403981 490.906
836.822288 1064.5
837.240804 252.284
837.659529 275.249
838.078463 350.354
838.497607 1931.95
838.916961 262.174
839.336524 331.755
839.756297 257.652
840.176281 5756.45
840.596474 249.559
841.016877 250.095
841.437491 251.937
841.858315 2240.37
842.279349 253.439
842.700594 364.755
843.12205 5614.25
843.543716 392.235
843.965593 264.283
844.387682 257.882
844.809981 312.081
845.232492 288.672
845.655214 2028.73
846.078147 280.901
846.501292 299.556
846.924648 4782.42
847.348217 264.374
847.771997 379.622
848.195989 265.807
848.620193 267.03
849.044609 267.673
849.469237 1561.08
849.894078 331.83
850.319131 363.232
850.744397 2540.2
851.169876 272.318
851.595567 272.587
852.021471 273.715
852.447589 338.17
852.873919 275.787
853.300463 276.689
853.72722 277.437
854.15419 2159.28
854.581374 318.957
855.008771 1137.44
855.436383 281.096
855.864208 282.049
856.292247 282.993
856.7205 283.997
857.148967 284.743
857.577649 423.48
858.006545 341.731
858.435656 287.139
858.864981 507.174
859.294521 288.046
859.724275 453.436
860.154245 456.658
860.58443 308.157
861.014829 322.814
861.445444 394.207
861.876275 724.322
862.307321 716.316
862.738582 1291.66
863.170059 1236.29
863.601752 1725.95
864.033661 918.032
864.465786 484.135
864.898127 737.025
865.330684 1474.26
865.763458 1660.55
866.196448 1759.82
866.629654 1687.73
867.063077 857.799
867.496717 1325.63
867.930574 746.73
868.364648 890.36
868.798939 655.461
869.233447 394.655
869.668172 411.202
870.103115 532.781
870.538275 337.193
870.973653 524.361
871.409249 323.361
871.845063 314.374
872.281094 308.945
872.717344 355.582
873.153812 303.805
873.590498 304.133
874.027402 359.291
874.464525 372.701
874.901867 315.745
875.339427 354.483
875.777206 305.86
876.215204 5341.55
876.653421 443.366
877.091858 5702.09
877.530513 337.958
877.969388 6299.79
878.408483 307.829
878.847797 308.201
879.287331 2156.53
879.727084 308.947
880.167058 309.217
880.607251 327.094
881.047665 508.214
881.488299 390.066
881.929153 310.637
882.370228 310.695
882.811524 11846.3
883.25304 578.697
883.694777 5232.28
884.136734 399.7
884.578913 380.28
885.021313 1072.12
885.463935 964.791
885.906777 312.969
886.349842 515.818
886.793127 3362.39
887.236635 318.332
887.680364 315.083
888.124315 314.525
888.568488 333.28
889.012884 8686.57
889.457501 372.994
889.902341 476.577
890.347404 3739.99
890.792689 392.23
891.238196 504.154
891.683927 334.518
892.12988 9389.67
892.576057 381.479
893.022456 557.117
893.469079 366.907
893.915925 393.838
894.362995 1369.94
894.810289 2268.52
895.257806 313.944
895.705546 314.215
896.153511 7784.63
896.6017 325.078
897.050113 352.198
897.49875 465.513
897.947612 379.552
898.396698 503.713
898.846008 436.638
899.295544 2424.45
899.745304 333.552
900.195289 4346.33
900.645499 306.962
901.095935 309.704
901.546595 311.018
901.997481 295.042
902.448593 405.961
902.89993 359.617
903.351493 375.988
903.803281 326.416
904.255296 1348.99
904.707537 367.101
905.160004 2295.93
905.612697 347.793
906.065616 377.085
906.518762 392.071
906.972135 478.069
907.425735 383.128
907.879561 336.189
908.333614 327.463
908.787895 315.844
909.242402 353.316
909.697137 949.56
910.152099 337.899
910.607289 1271.2
911.062707 322.073
911.518352 331.693
911.974225 302.91
912.430326 332.177
912.886655 323.419
913.343213 306.68
913.799999 356.615
914.257013 348.767
914.714256 333.444
915.171727 407.383
915.629427 739.617
916.087357 467.436
916.545515 856.308
917.003902 327.762
917.462519 314.074
917.921365 322.822
918.38044 333.645
918.839745 323.103
919.29928 332.958
919.759045 324.057
920.219039 346.363
920.679264 346.029
921.139718 354.941
921.600403 342.104
922.061319 652.003
922.522465 626.268
922.983841 543.933
923.445449 337.546
923.907287 333.24
924.369356 335.722
924.831656 332.842
925.294188 335.676
925.75695 340.605
926.219945 335.368
926.68317 340.155
927.146628 341.971
927.610317 336.098
928.074238 317.58
928.538391 329.898
929.002777 329.96
929.467394 329.028
929.932244 310.669
930.397326 307.007
930.862641 4152.05
931.328189 2290.82
931.79397 4884.98
932.259983 433.296
932.72623 5792.88
933.192709 328.017
933.659422 240.768
934.126369 1713.07
934.593549 162.993
935.060962 323.442
935.52861 232.229
935.996491 223.841
936.464606 326.985
936.932956 258.213
937.401539 218.592
937.870357 12849.6
938.33941 632.973
938.808697 361.652
939.278219 333.617
939.747975 509.506
940.217967 301.824
940.688193 2027.12
941.158655 285.184
941.629352 334.935
942.100284 2864.44
942.571452 862.763
943.042856 219.161
943.514495 314.343
943.98637 4190.91
944.458481 4085.99
944.930829 493.665
945.403412 327.489
945.876232 1908.27
946.349289 1884.84
946.822581 324.316
947.296111 308.54
947.769878 7974.82
948.243881 293.235
948.718122 325.32
949.192599 344.39
949.667314 269.98
950.142267 246.996
950.617456 3089.79
951.092884 353.874
951.568549 345.76
952.044453 5037.88
952.520594 284.743
952.996973 292.465
953.473591 347.413
953.950447 314.235
954.427541 310.959
954.904875 301.157
955.382446 2119.04
955.860257 285.734
956.338307 338.185
956.816595 4240.19
957.295123 325.124
957.77389 355.796
958.252897 298.328
958.732143 355.017
959.211629 292.082
959.691355 321.014
960.171321 333.321
960.651526 326.429
961.131972 1174.47
961.612658 342.538
962.093585 1246.8
962.574752 659.606
963.05616 338.422
963.537808 370.157
964.019698 320.185
964.501828 353.778
964.9842 322.629
965.466812 417.53
965.949666 624.356
966.432762 449.832
966.916099 1624.81
967.399678 354.002
967.883499 852.25
968.367562 3658.73
968.851867 373.864
969.336414 1626.07
969.821203 375.884
970.306235 5929.58
970.791509 378.49
971.277026 2694.02
971.762786 362.277
972.248789 7493.73
972.735035 362.465
973.221524 372.935
973.708257 459.702
974.195233 2945.51
974.682452 554.025
975.169915 363.226
975.657622 367.013
976.145573 362.153
976.633768 358.791
977.122207 381.823
977.61089 378.263
978.099817 373.971
978.58899 369.313
979.078406 2391.61
979.568068 16635.9
980.057975 7360.56
980.548126 371.383
981.038523 646.187
981.529165 2474.63
982.020052 429.549
982.511185 460.992
983.002563 937.704
983.494187 384.782
983.986057 388.905
984.478173 385.395
984.970536 4751.57
985.463144 390.033
985.955999 390.816
986.4491 391.941
986.942448 393.953
987.436043 14566.2
987.929884 392.324
988.423973 393.493
988.918308 399.463
989.412891 394.17
989.907721 5590.12
990.402799 396.74
990.898124 395.088
991.393697 395.754
991.889518 14949.4
992.385586 396.335
992.881903 395.644
993.378468 397.195
993.875282 398.241
994.372344 5312.48
994.869654 12324.7
995.367213 719.601
995.865021 7861.14
996.363078 9992.4
996.861384 400.086
997.35994 2287.72
997.858744 455.568
998.357799 428.545
998.857102 401.656
999.356656 401.82
999.856459 402.61
1000.35651 2421.16
1000.85682 403.548
1001.35737 14232.9
1001.85817 4666.45
1002.35923 828.219
1002.86053 5465.56
1003.36209 408.697
1003.86389 589.996
1004.36595 405.97
1004.86826 2381.23
1005.37082 406.63
1005.87363 407.374
1006.37669 3888.98
1006.88001 1104.61
1007.38357 1872.21
1007.88739 408.394
1008.39146 9262.84
1008.89578 409.218
1009.40036 437.931
1009.90518 626.19
1010.41026 4015.22
1010.91559 411.227
1011.42118 411.698
1011.92701 411.577
1012.43311 5842.96
1012.93945 5635.82
1013.44604 854.937
1013.95289 413.756
1014.46 581.564
1014.96735 1152.58
1015.47496 3944.3
1015.98283 2754.32
1016.49095 1599.43
1016.99932 418.211
1017.50795 14872.6
1018.01683 416.89
1018.52596 3357.51
1019.03535 13030.3
1019.545 462.275
1020.0549 495.713
1020.56505 5584.19
1021.07546 2541.28
1021.58613 15972.1
1022.09705 420.475
1022.60823 2834.41
1023.11966 8420.98
1023.63135 420.572
1024.14329 420.994
1024.65549 422.068
1025.16795 422.329
1025.68066 422.651
1026.19363 423.082
1026.70685 431.092
1027.22033 1538.44
1027.73407 424.034
1028.24807 425.238
1028.76232 47384
1029.27683 1033.56
1029.7916 15433.9
1030.30662 426.416
1030.8219 933.431
1031.33744 5088.38
1031.85324 427.613
1032.3693 604.681
1032.88561 1738.96
1033.40218 434.567
1033.91901 437.197
1034.4361 898.4
1034.95345 9252.12
1035.47105 1267.13
1035.98892 813.124
1036.50704 449.942
1037.02543 452.441
1037.54407 29624.1
1038.06297 516.426
1038.58213 460.185
1039.10155 462.753
1039.62123 465.279
1040.14117 11362.2
1040.66138 472.755
1041.18184 482.234
1041.70256 630.155
1042.22354 31098.3
1042.74478 480.713
1043.26628 763.433
1043.78805 485.839
1044.31007 485.309
1044.83236 482.775
1045.3549 8793.88
1045.87771 475.031
1046.40078 471.729
1046.92411 10545.9
1047.44771 10537.5
1047.97156 461.799
1048.49568 458.481
1049.02006 454.978
1049.5447 451.481
1050.0696 491.033
1050.59477 445.08
1051.1202 4945.09
1051.64589 475.104
1052.17184 434.882
1052.69806 10038.8
1053.22454 428.222
1053.75128 424.848
1054.27829 421.474
1054.80556 418.037
1055.3331 414.621
1055.8609 411.173
1056.38896 407.723
1056.91728 404.255
1057.44588 2165.27
1057.97473 397.309
1058.50385 393.865
1059.03323 3857.81
1059.56288 387.013
1060.0928 391.49
1060.62298 388.147
1061.15342 376.83
1061.68413 373.524
1062.2151 372.886
1062.74634 376.654
1063.27785 380.317
1063.80962 384.064
1064.34166 914.897
1064.87396 391.263
1065.40653 1355.05
1065.93937 399.001
1066.47247 402.94
1067.00584 406.802
1067.53948 410.591
1068.07338 414.423
1068.60755 708.624
1069.14199 1596.11
1069.6767 977.725
1070.21167 3886.44
1070.74691 2168.02
1071.28241 9398.13
1071.81819 565.136
1072.35423 4534.96
1072.89054 660.718
1073.42712 17420.1
1073.96397 460.259
1074.50109 7342.59
1075.03847 467.718
1075.57613 20764.9
1076.11405 476.29
1076.65224 480.052
1077.1907 483.646
1077.72943 7525.92
1078.26843 491.367
1078.8077 496.332
1079.34724 521.465
1079.88705 503.872
1080.42712 539.333
1080.96747 511.712
1081.50809 513.154
1082.04898 518.391
1082.59014 514.815
1083.13157 6063.61
1083.67327 51866.4
1084.21524 20909.8
1084.75749 495.794
1085.3 1154.78
1085.84279 6784.56
1086.38585 473.173
1086.92917 477.234
1087.47277 711.707
1088.01665 2311.08
1088.56079 469.41
1089.10521 458.06
1089.6499 11639.8
1090.19486 837.197
1090.74009 445.613
1091.2856 443.135
1091.83138 438.56
1092.37743 25293.3
1092.92375 12119.2
1093.47035 516.873
1094.01722 418.847
1094.56437 411.909
1095.11179 14449
1095.65948 401.566
1096.20745 398.022
1096.75569 413.734
1097.3042 40041.3
1097.85299 378.822
1098.40206 381.337
1098.9514 372.908
1099.50101 363.46
1100.0509 363.631
1100.60106 363.353
1101.1515 11329.7
1101.70221 350.45
1102.2532 344.76
1102.80446 27096.7
1103.356 343.907
1103.90782 347.494
1104.45991 331.164
1105.01228 342.9
1105.56493 334.602
1106.11785 327.582
1106.67104 330.156
1107.22452 6432.86
1107.77827 330.754
1108.3323 317.333
1108.8866 13704.3
1109.44118 327.35
1109.99604 326.547
1110.55118 307.31
1111.10659 304.37
1111.66228 301.208
1112.21825 316.114
1112.7745 298.511
1113.33103 278.077
1113.88783 2805.19
1114.44492 314.052
1115.00228 242.887
1115.55992 5103.72
1116.11784 262.856
1116.67604 169.508
1117.23451 237.272
1117.79327 285.529
1118.35231 247.644
1118.91162 235.488
1119.47122 214.868
1120.0311 251.556
1120.59125 225.706
1121.15169 246.946
1121.7124 736.614
1122.2734 154.464
1122.83468 822.011
1123.39623 246.648
1123.95807 192.539
1124.52019 262.412
1125.08259 249.912
1125.64527 108.772
1126.20824 213.173
1126.77148 273.955
1127.33501 232.999
1127.89882 208.137
1128.46291 248.991
1129.02728 2072.53
1129.59194 1067.28
1130.15687 4258.79
1130.72209 2821.6
1131.2876 11175.5
1131.85338 307.026
1132.41945 5034.12
1132.9858 18882.2
1133.55243 194.28
1134.11935 222.55
1134.68655 66.9651
1135.25404 16885.1
1135.82181 257.509
1136.38986 277.491
1136.9582 335.469
1137.52682 2964.5
1138.09572 378.906
1138.66491 301.218
1139.23439 386.776
1139.80415 278.162
1140.37419 351.677
1140.94452 272.961
1141.51514 296.747
1142.08604 307.724
1142.65722 336.014
1143.2287 350.662
1143.80045 53335.9
1144.3725 236.612
1144.94483 22254.6
1145.51744 281.64
1146.09034 974.176
1146.66353 6935.84
1147.23701 241.905
1147.81077 295.907
1148.38482 628.045
1148.95915 2423.51
1149.53378 273.885
1150.10869 272.23
1150.68389 1160.41
1151.25937 388.216
1151.83514 877.916
1152.41121 282.099
1152.98756 303.635
1153.56419 311.318
1154.14112 39622.2
1154.71834 319.812
1155.29584 450.715
1155.87363 294.802
1156.45171 9845.52
1157.03008 339.545
1157.60874 306.52
1158.18769 346.883
1158.76693 322
1159.34646 42635.2
1159.92628 326.597
1160.50639 309.884
1161.08678 346.778
1161.66747 339.769
1162.24845 326.771
1162.82972 12823.3
1163.41128 351.837
1163.99313 344.872
1164.57527 353.873
1165.15771 29905.4
1165.74043 336.287
1166.32345 349.797
1166.90676 340.015
1167.49035 351.605
1168.07425 351.199
1168.65843 346.062
1169.2429 347.934
1169.82767 7790.47
1170.41273 346.53
1170.99808 349.322
1171.58373 16718
1172.16967 345.379
1172.7559 352.896
1173.34242 350.555
1173.92924 324.82
1174.51635 346.967
1175.10376 346.997
1175.69146 339.579
1176.27945 347.828
1176.86774 3611.21
1177.45632 321.694
1178.04519 327.824
1178.63436 6886.42
1179.22383 334.123
1179.81359 313.644
1180.40364 328.573
1180.99399 322.84
1181.58464 296.322
1182.17558 296.477
1182.76681 312.767
1183.35834 314.251
1183.95017 310.576
1184.54229 290.241
1185.13471 1397.08
1185.72743 302.63
1186.32044 1330.11
1186.91375 1326.45
1187.50735 280.666
1188.10125 279.772
1188.69545 283.467
1189.28995 282.116
1189.88474 286.084
1190.47984 278.645
1191.07522 274.75
1191.67091 275.055
1192.26689 275.761
1192.86318 272.222
1193.45976 260.173
1194.05664 563.89
1194.65381 263.043
1195.25129 760.377
1195.84907 255.102
1196.44714 254.269
1197.04551 2984.7
1197.64419 4947.75
1198.24316 2763.45
1198.84243 11773.5
1199.442 237.353
1200.04187 5518.18
1200.64204 20653.4
1201.24251 232.913
1201.84328 225.19
1202.44436 8383.27
1203.04573 22899.4
1203.6474 204.78
1204.24938 317.969
1204.85165 210.603
1205.45423 8162.76
1206.05711 213.975
1206.66029 207.837
1207.26377 202.315
1207.86755 202.955
1208.47163 202.191
1209.07602 198.306
1209.68071 200.375
1210.2857 202.206
1210.891 202.078
1211.49659 195.257
1212.10249 60983.2
1212.7087 199.332
1213.3152 23193.7
1213.92201 204.25
1214.52912 204.271
1215.13654 942.782
1215.74426 7642.8
1216.35228 195.806
1216.96061 193.64
1217.56924 488.299
1218.17818 2626.7
1218.78742 191.573
1219.39697 11962.2
1220.00682 191.368
1220.61698 287.637
1221.22744 859.185
1221.8382 187.899
1222.44928 187.382
1223.06065 39518
1223.67234 186.719
1224.28432 214.242
1224.89662 346.123
1225.50922 15598.2
1226.12213 185.389
1226.73534 184.114
1227.34886 182.326
1227.96269 183.604
1228.57683 44260.2
1229.19127 213.023
1229.80602 180.736
1230.42108 180.962
1231.03644 180.29
1231.65211 179.572
1232.26809 179.126
1232.88438 12981.6
1233.50098 178.377
1234.11788 182.19
1234.73509 176.245
1235.35262 31956.3
1235.97045 175.056
1236.58859 174.147
1237.20704 173.4
1237.82579 172.772
1238.44486 172.61
1239.06424 172.79
1239.68393 173.201
1240.30392 7941.71
1240.92423 172.853
1241.54485 176.844
1242.16577 17423.2
1242.78701 186.63
1243.40856 173.382
1244.03042 216.923
1244.65259 173.543
1245.27507 304.166
1245.89787 173.681
1246.52097 527.766
1247.14439 173.808
1247.76812 173.855
1248.39216 4612.17
1249.01651 173.955
1249.64117 1994.92
1250.26615 7432.72
1250.89144 3484.56
1251.51704 174.058
1252.14296 174.1
1252.76918 5337.05
1253.39573 174.105
1254.02258 6697.42
1254.64975 174.053
1255.27723 173.994
1255.90503 6872.48
1256.53314 182.244
1257.16156 7682.73
1257.7903 331.555
1258.41935 1227.6
1259.04872 10034.8
1259.6784 4302.95
1260.30839 7352.88
1260.93871 14270.1
1261.56933 11027.9
1262.20028 5509.18
1262.83153 12849.6
1263.46311 6543.26
1264.095 9906.53
1264.7272 3447.08
1265.35972 1256.12
1265.99256 11588.9
1266.62572 7808.4
1267.25919 10134.8
1267.89298 2610.23
1268.52708 56307.7
1269.1615 34751.4
1269.79624 35851.9
1270.4313 13860.7
1271.06667 9772.26
1271.70237 4938.41
1272.33838 14496
1272.9747 10714.3
1273.61135 4582.1
1274.24832 15223
1274.8856 14565.5
1275.5232 6582.32
1276.16112 35221.7
1276.79936 218.092
1277.43792 16505.2
1278.0768 23086.6
1278.716 12165.5
1279.35552 2764.7
1279.99535 9965.15
1280.63551 27431.6
1281.27599 1349.17
1281.91679 743.984
1282.55791 6269.05
1283.19935 7726
1283.84111 181.287
1284.48319 4207.79
1285.12559 247.426
1285.76831 204.425
1286.41136 2660.51
1287.05472 188.105
1287.69841 188.272
1288.34242 198.513
1288.98676 1500.53
1289.63141 208.688
1290.27639 53654.9
1290.92169 797.689
1291.56731 1801.23
1292.21325 19184.1
1292.85952 290.328
1293.50611 1019.1
1294.15303 7336.42
1294.80027 183.42
1295.44783 277.501
1296.09571 455.245
1296.74392 185.239
1297.39246 2600.96
1298.04132 183.713
1298.6905 10436.3
1299.34001 182.223
1299.98984 291.378
1300.64 878.449
1301.29048 185.328
1301.94129 34644.7
1302.59242 183.387
1303.24388 181.272
1303.89566 182.473
1304.54778 203.828
1305.20021 14113.5
1305.85298 183.76
1306.50607 175.674
1307.15948 180.81
1307.81323 178.167
1308.4673 39705.2
1309.12169 185.845
1309.77642 178.445
1310.43147 212.893
1311.08685 185.145
1311.74256 187.663
1312.39859 179.247
1313.05495 11926.7
1313.71165 168.018
1314.36867 181.218
1315.02601 178.9
1315.68369 22151.3
1316.3417 193.362
1317.00003 172.784
1317.6587 188.14
1318.31769 176.15
1318.97702 177.627
1319.63667 178.669
1320.29665 163.247
1320.95697 7471.49
1321.61761 182.314
1322.27858 188.505
1322.93989 174.725
1323.60152 16908.1
1324.26349 180.12
1324.92579 204.589
1325.58842 192.837
1326.25138 202.381
1326.91467 190.934
1327.57829 201.46
1328.24225 190.352
1328.90653 180.68
1329.57115 204.066
1330.2361 1900.06
1330.90139 194.815
1331.56701 171.537
1332.23296 5404.15
1332.89924 210.048
1333.56586 188.176
1334.2328 208.607
1334.90009 205.022
1335.56771 225.904
1336.23566 183.022
1336.90394 209.881
1337.57256 205.46
1338.24151 211.364
1338.9108 217.595
1339.58042 220.347
1340.25038 851.556
1340.92067 233.99
1341.5913 197.041
1342.26227 2848.52
1342.93356 215.749
1343.6052 215.917
1344.27717 146.609
1344.94948 206.901
1345.62212 185.184
1346.2951 182.241
1346.96841 215.954
1347.64207 109.027
1348.31606 113.724
1348.99038 147.394
1349.66505 202.532
1350.34005 95.3832
1351.01539 392.126
1351.69106 66.4219
1352.36708 345.052
1353.04343 357.686
1353.72012 108.344
1354.39715 27.4859
1355.07452 26.0928
1355.75223 37.3326
1356.43027 89.2254
1357.10866 49.3901
1357.78738 41.6222
