# Obtained using Skycalc tool from ESO webpage
# Not including telescope emissivity
Wave[nm] Radiance[photons/s/m**2/micron/arsec**2]
1450 276.252
1450.04833 269.962
1450.09667 195.211
1450.14501 52.5928
1450.19335 80.9841
1450.24169 1594.37
1450.29003 19.8946
1450.33837 753.121
1450.38672 194.812
1450.43507 194.558
1450.48341 154.16
1450.53176 72.9795
1450.58012 7.77216
1450.62847 3.05226
1450.67682 3.0441
1450.72518 24.0316
1450.77354 103.468
1450.8219 78.7979
1450.87026 181.852
1450.91862 166.383
1450.96699 75.4197
1451.01536 125.718
1451.06372 128.142
1451.11209 17.9829
1451.16046 8.87882
1451.20884 97.323
1451.25721 111.914
1451.30559 107.842
1451.35397 261.618
1451.40234 297.471
1451.45073 302.662
1451.49911 307.969
1451.54749 313.498
1451.59588 306.546
1451.64426 321.827
1451.69265 322.311
1451.74104 301.248
1451.78944 253.023
1451.83783 203.325
1451.88623 1.109e+06
1451.93462 813661
1451.98302 241.955
1452.03142 298.08
1452.07982 284.072
1452.12823 220.426
1452.17663 122.51
1452.22504 12.7152
1452.27345 38.6667
1452.32186 183.57
1452.37027 5272.61
1452.41868 301.127
1452.4671 314.987
1452.51551 325.171
1452.56393 6625.81
1452.61235 331.624
1452.66077 332.258
1452.70919 330.566
1452.75762 325.7
1452.80604 315.878
1452.85447 289.315
1452.9029 206.61
1452.95133 41.9064
1452.99977 50.6785
1453.0482 217.395
1453.09664 292.061
1453.14507 283.073
1453.19351 282.491
1453.24195 327.383
1453.29039 328.3
1453.33884 335.487
1453.38728 340.7
1453.43573 314.189
1453.48418 267.389
1453.53263 297.023
1453.58108 337.781
1453.62954 343.087
1453.67799 342.521
1453.72645 352.191
1453.77491 351.609
1453.82337 355.314
1453.87183 356.684
1453.92029 353.399
1453.96875 352.023
1454.01722 343.401
1454.06569 258.606
1454.11416 315.394
1454.16263 350.088
1454.2111 353.549
1454.25958 350.054
1454.30805 340.144
1454.35653 307.429
1454.40501 127.23
1454.45349 189.396
1454.50197 311.924
1454.55046 354.529
1454.59894 361.882
1454.64743 358.157
1454.69592 357.468
1454.74441 356.85
1454.7929 353.482
1454.8414 340.896
1454.88989 263.717
1454.93839 299.089
1454.98689 325.322
1455.03539 331.802
1455.08389 344.184
1455.1324 304.867
1455.1809 262.032
1455.22941 172.1
1455.27792 42.6734
1455.32643 3.41038
1455.37494 29.442
1455.42345 153.264
1455.47197 252.778
1455.52048 298.24
1455.569 321.658
1455.61752 328.855
1455.66604 290.18
1455.71456 329.024
1455.76309 354.898
1455.81162 344.887
1455.86014 357.12
1455.90867 359.977
1455.9572 280.529
1456.00574 322.279
1456.05427 367.27
1456.10281 362.29
1456.15134 334.595
1456.19988 174.395
1456.24842 300.882
1456.29697 359.491
1456.34551 346.109
1456.39406 773443
1456.4426 290.318
1456.49115 318.582
1456.5397 373.676
1456.58826 377.934
1456.63681 380.993
1456.68536 379.911
1456.73392 370.095
1456.78248 354.276
1456.83104 371.087
1456.8796 333.763
1456.92817 177.864
1456.97673 264.579
1457.0253 355.496
1457.07387 328.36
1457.12244 373.304
1457.17101 380.033
1457.21958 377.029
1457.26816 335.542
1457.31673 139.682
1457.36531 325.223
1457.41389 377.29
1457.46247 381.625
1457.51105 379.625
1457.55964 372.475
1457.60822 352.675
1457.65681 277.505
1457.7054 97.8628
1457.75399 38.0182
1457.80258 234.605
1457.85118 339.186
1457.89977 361.985
1457.94837 380.071
1457.99697 378.937
1458.04557 388.448
1458.09417 393.584
1458.14278 382.246
1458.19138 393.588
1458.23999 391.864
1458.2886 398.376
1458.33721 397.392
1458.38582 394.463
1458.43444 368.726
1458.48305 297.739
1458.53167 385.749
1458.58029 395.764
1458.62891 379.028
1458.67753 282.271
1458.72615 370.226
1458.77478 399.23
1458.8234 403.52
1458.87203 403.648
1458.92066 387.182
1458.96929 365.182
1459.01793 390.753
1459.06656 375.138
1459.1152 286.193
1459.16384 386.05
1459.21248 402.178
1459.26112 402.675
1459.30976 391.825
1459.3584 315.348
1459.40705 376.505
1459.4557 401.589
1459.50435 403.585
1459.553 403.154
1459.60165 402.205
1459.6503 392.507
1459.69896 384.37
1459.74762 383.56
1459.79628 294.806
1459.84494 328.634
1459.8936 334.26
1459.94226 314.99
1459.99093 378.169
1460.0396 380.309
1460.08827 372.286
1460.13694 356.435
1460.18561 323.121
1460.23428 246.037
1460.28296 91.6842
1460.33163 5.58921
1460.38031 48.2676
1460.42899 248382
1460.47767 512620
1460.52636 894560
1460.57504 311.704
1460.62373 371.987
1460.67242 377.429
1460.72111 377.275
1460.7698 373.399
1460.81849 380.483
1460.86719 363.341
1460.91588 387.506
1460.96458 390.441
1461.01328 386.985
1461.06198 369.115
1461.11069 363.434
1461.15939 337.99
1461.2081 238.461
1461.2568 41.5993
1461.30551 112.593
1461.35422 297.122
1461.40294 360.069
1461.45165 355.091
1461.50037 235.333
1461.54908 333.834
1461.5978 378.317
1461.64652 339.119
1461.69525 270.194
1461.74397 331.454
1461.7927 232.374
1461.84142 363.923
1461.89015 386.874
1461.93888 389.262
1461.98761 387.641
1462.03635 321.772
1462.08508 343.521
1462.13382 388.213
1462.18256 387.709
1462.2313 389.442
1462.28004 395.588
1462.32878 396.957
1462.37753 395.958
1462.42628 391.947
1462.47503 353.39
1462.52378 370.141
1462.57253 320.522
1462.62128 374.798
1462.67003 433.119
1462.71879 380.562
1462.76755 382.191
1462.81631 375.205
1462.86507 348.633
1462.91383 198.577
1462.9626 222.263
1463.01136 322.005
1463.06013 164.383
1463.1089 289.523
1463.15767 149.169
1463.20645 19.8514
1463.25522 10.8624
1463.304 118.852
1463.35277 251.113
1463.40155 268.614
1463.45033 185.491
1463.49912 314.63
1463.5479 359.674
1463.59669 371.661
1463.64547 1358.09
1463.69426 380.253
1463.74305 1320.1
1463.79185 440.763
1463.84064 384.776
1463.88943 373.697
1463.93823 277.159
1463.98703 216.393
1464.03583 361.032
1464.08463 384.909
1464.13344 389.532
1464.18224 391.414
1464.23105 392.016
1464.27986 391.084
1464.32867 389.451
1464.37748 391.222
1464.42629 391.671
1464.47511 392.136
1464.52392 1220.73
1464.57274 1218.71
1464.62156 389.567
1464.67038 386.12
1464.71921 387.044
1464.76803 385.823
1464.81686 383.058
1464.86569 379.819
1464.91452 374.193
1464.96335 364.718
1465.01218 344.964
1465.06101 629.232
1465.10985 332.739
1465.15869 137.706
1465.20753 5.54396
1465.25637 37.3998
1465.30521 37.6428
1465.35406 55.3654
1465.4029 238.642
1465.45175 323.678
1465.5006 352.896
1465.54945 2006.36
1465.5983 381.568
1465.64716 376.177
1465.69601 377.832
1465.74487 378.08
1465.79373 2053.65
1465.84259 368.725
1465.89145 320.372
1465.94031 327.401
1465.98918 190.988
1466.03805 27.6928
1466.08692 150.949
1466.13579 312.479
1466.18466 348.986
1466.23353 356.364
1466.28241 328.998
1466.33128 322.118
1466.38016 217.766
1466.42904 37.801
1466.47792 205207
1466.52681 219638
1466.57569 324.414
1466.62458 232.855
1466.67347 67.7787
1466.72236 189.447
1466.77125 325.458
1466.82014 343.379
1466.86904 338.626
1466.91793 313.703
1466.96683 233.091
1467.01573 88.011
1467.06463 15.1017
1467.11354 1309.35
1467.16244 219.902
1467.21135 324.779
1467.26026 351.399
1467.30916 357.167
1467.35808 345.784
1467.40699 364.778
1467.4559 349.819
1467.50482 251.077
1467.55374 338.488
1467.60266 358.97
1467.65158 348.568
1467.7005 322.303
1467.74942 233.421
1467.79835 51.1055
1467.84728 46.9541
1467.89621 1812.23
1467.94514 321.268
1467.99407 352.439
1468.043 364.999
1468.09194 370.75
1468.14088 373.749
1468.18981 371.975
1468.23875 324.945
1468.2877 341.337
1468.33664 367.487
1468.38559 327.78
1468.43453 367.833
1468.48348 357.015
1468.53243 243.622
1468.58138 301.573
1468.63034 360.105
1468.67929 370.002
1468.72825 372.699
1468.77721 377.955
1468.82617 375.311
1468.87513 374.365
1468.92409 373.075
1468.97306 358.285
1469.02202 332.127
1469.07099 321.051
1469.11996 285.72
1469.16893 251.47
1469.21791 220.054
1469.26688 267.982
1469.31586 337.987
1469.36484 335.605
1469.41382 318.984
1469.4628 285.333
1469.51178 215.205
1469.56076 89.529
1469.60975 9.89571
1469.65874 6.64611
1469.70773 73.6138
1469.75672 194.295
1469.80571 421888
1469.85471 312.707
1469.9037 601869
1469.9527 334.626
1470.0017 348.884
1470.0507 356.219
1470.0997 358.541
1470.14871 357.854
1470.19771 26780.7
1470.24672 26199.6
1470.29573 328.578
1470.34474 205.746
1470.39375 249.85
1470.44277 306.522
1470.49178 188.925
1470.5408 155.624
1470.58982 216.171
1470.63884 96.3214
1470.68786 6.81908
1470.73688 6.23131
1470.78591 67.7978
1470.83494 115.479
1470.88396 187.394
1470.93299 262.796
1470.98203 232.998
1471.03106 109.952
1471.0801 9.00916
1471.12913 80.4132
1471.17817 231.49
1471.22721 284.995
1471.27625 198.415
1471.3253 1443.16
1471.37434 11774.8
1471.42339 341.79
1471.47244 344.544
1471.52149 355.399
1471.57054 348.088
1471.61959 299.527
1471.66865 337.149
1471.7177 317.138
1471.76676 191.461
1471.81582 150.434
1471.86488 318.227
1471.91394 344.662
1471.96301 352.186
1472.01207 348.911
1472.06114 340.229
1472.11021 331.753
1472.15928 308.383
1472.20836 259.019
1472.25743 162.759
1472.30651 31.293
1472.35558 5.64913
1472.40466 23.8723
1472.45374 147.775
1472.50283 243.669
1472.55191 208.896
1472.601 44.9457
1472.65008 124.579
1472.69917 279.597
1472.74826 330.894
1472.79736 341.556
1472.84645 353.124
1472.89555 352.865
1472.94464 352.693
1472.99374 354.974
1473.04284 349.692
1473.09195 341.219
1473.14105 303.6
1473.19016 150.068
1473.23926 63.2894
1473.28837 260.768
1473.33748 333.381
1473.38659 350
1473.43571 354.423
1473.48482 353.104
1473.53394 343.349
1473.58306 315.475
1473.63218 268.004
1473.6813 227.278
1473.73042 56.3664
1473.77955 37.4015
1473.82868 207.873
1473.8778 303.299
1473.92693 281.883
1473.97607 94073.5
1474.0252 99102.8
1474.07433 355.376
1474.12347 356.061
1474.17261 325.436
1474.22175 347.813
1474.27089 365.744
1474.32003 368.828
1474.36918 367.486
1474.41833 368.905
1474.46747 370.117
1474.51662 369.856
1474.56577 369.511
1474.61493 365.108
1474.66408 351.055
1474.71324 296.15
1474.7624 275.027
1474.81156 355.677
1474.86072 366.671
1474.90988 368.955
1474.95904 369.748
1475.00821 369.952
1475.05738 369.849
1475.10655 369.377
1475.15572 368.727
1475.20489 367.842
1475.25407 367.072
1475.30324 365.53
1475.35242 360.111
1475.4016 343.213
1475.45078 300.29
1475.49996 265.688
1475.54915 64003.3
1475.59833 41689.3
1475.64752 313.216
1475.69671 296.608
1475.7459 173.787
1475.79509 21.2983
1475.84429 110.873
1475.89348 246.39
1475.94268 159.893
1475.99188 73.9609
1476.04108 271.953
1476.09028 332.59
1476.13948 331.298
1476.18869 257.646
1476.2379 334.247
1476.28711 357.05
1476.33632 354.85
1476.38553 338.004
1476.43474 332.265
1476.48396 358.766
1476.53317 353.196
1476.58239 343.494
1476.63161 337.427
1476.68083 276.705
1476.73006 262.108
1476.77928 163.908
1476.82851 265.845
1476.87774 285.22
1476.92697 251.118
1476.9762 280.997
1477.02543 189.042
1477.07467 26.4697
1477.12391 82.2924
1477.17314 249.509
1477.22238 126012
1477.27162 133855
1477.32087 344.852
1477.37011 345.47
1477.41936 349.723
1477.46861 349.568
1477.51786 347.202
1477.56711 342.006
1477.61636 329.097
1477.66562 317.236
1477.71487 282.634
1477.76413 200.176
1477.81339 52.3761
1477.86265 7.6785
1477.91191 89.872
1477.96118 223.883
1478.01045 276.601
1478.05971 277.059
1478.10898 161.002
1478.15825 71.7184
1478.20753 412.543
1478.2568 311.773
1478.30608 341.559
1478.35535 305998
1478.40463 309119
1478.45392 350.069
1478.5032 349.519
1478.55248 352.141
1478.60177 355.026
1478.65106 358.086
1478.70034 358.044
1478.74964 356.931
1478.79893 350.053
1478.84822 349.155
1478.89752 327.524
1478.94682 207.865
1478.99611 187.547
1479.04541 309.762
1479.09472 343.81
1479.14402 345.538
1479.19333 349.753
1479.24263 346.457
1479.29194 325.619
1479.34125 274.002
1479.39057 190.709
1479.43988 260.559
1479.4892 122.578
1479.53851 29.086
1479.58783 197.3
1479.63715 303.272
1479.68647 329.793
1479.7358 329.724
1479.78512 310.927
1479.83445 344.193
1479.88378 347.689
1479.93311 298469
1479.98244 341.194
1480.03177 256424
1480.08111 270.492
1480.13045 142.269
1480.17978 254.276
1480.22912 601.03
1480.27847 243.209
1480.32781 105.487
1480.37715 9.39878
1480.4265 83.5896
1480.47585 229.334
1480.5252 286.233
1480.57455 240907
1480.62391 249.067
1480.67326 75.6109
1480.72262 75.2816
1480.77197 258.144
1480.82133 314.413
1480.8707 333.665
1480.92006 340.043
1480.96942 346.615
1481.01879 349.342
1481.06816 350.117
1481.11753 345.399
1481.1669 350.459
1481.21627 346.139
1481.26565 346.03
1481.31502 348.872
1481.3644 348.099
1481.41378 345.978
1481.46316 340.786
1481.51255 332.26
1481.56193 314.635
1481.61132 276.81
1481.6607 146.928
1481.71009 13.1987
1481.75949 63.3749
1481.80888 220.964
1481.85827 259.606
1481.90767 300.187
1481.95707 327.213
1482.00647 327.583
1482.05587 309.094
1482.10527 210.768
1482.15467 50.4239
1482.20408 188.935
1482.25349 188.141
1482.3029 317.4
1482.35231 340.796
1482.40172 346.342
1482.45113 348.097
1482.50055 346.384
1482.54997 304.734
1482.59939 274.923
1482.64881 344.537
1482.69823 350.247
1482.74765 347.526
1482.79708 345.408
1482.84651 346.718
1482.89594 348.223
1482.94537 349.174
1482.9948 342.217
1483.04423 300.603
1483.09367 172.848
1483.14311 269.512
1483.19255 329.358
1483.24199 339.156
1483.29143 647839
1483.34087 643424
1483.39032 265.928
1483.43976 335.323
1483.48921 340.511
1483.53866 299.934
1483.58812 328.432
1483.63757 334.439
1483.68703 347.471
1483.73648 350.522
1483.78594 349.758
1483.8354 348.011
1483.88486 319.165
1483.93433 332.101
1483.98379 336.626
1484.03326 343.819
1484.08273 331.762
1484.1322 275.369
1484.18167 329.515
1484.23114 344.618
1484.28062 326.513
1484.3301 212.536
1484.37957 52.148
1484.42905 223.308
1484.47854 205.133
1484.52802 137.476
1484.5775 326.891
1484.62699 354.251
1484.67648 320.462
1484.72597 277.143
1484.77546 377.159
1484.82495 371.72
1484.87445 392.777
1484.92395 409.806
1484.97344 414.687
1485.02294 416.891
1485.07245 417.937
1485.12195 417.696
1485.17145 400.889
1485.22096 259.774
1485.27047 201.599
1485.31998 387.226
1485.36949 424.044
1485.419 433.119
1485.46852 425.452
1485.51803 342.642
1485.56755 141.846
1485.61707 359.773
1485.66659 439.87
1485.71612 457.605
1485.76564 459.275
1485.81517 461.649
1485.8647 470.303
1485.91423 453.506
1485.96376 466.992
1486.01329 464.434
1486.06282 378.845
1486.11236 228.057
1486.1619 409.071
1486.21144 464.274
1486.26098 475.339
1486.31052 491.755
1486.36007 494.977
1486.40961 539.965
1486.45916 476834
1486.50871 160.926
1486.55826 426.486
1486.60781 454.032
1486.65737 329.842
1486.70692 58.3897
1486.75648 232.247
1486.80604 414.395
1486.8556 501.63
1486.90517 525.229
1486.95473 523.689
1487.0043 467.986
1487.05386 430.802
1487.10343 367.604
1487.153 432.354
1487.20258 270.452
1487.25215 474.046
1487.30173 528.43
1487.3513 534.291
1487.40088 559.441
1487.45046 535.864
1487.50005 325.276
1487.54963 402.121
1487.59922 564.92
1487.6488 586.997
1487.69839 593.523
1487.74798 595.097
1487.79758 590.691
1487.84717 569.571
1487.89677 458.087
1487.94636 119.858
1487.99596 310.558
1488.04556 526.46
1488.09517 576.533
1488.14477 605.825
1488.19438 576.351
1488.24398 561.07
1488.29359 291.909
1488.3432 400.452
1488.39281 591.094
1488.44243 621.751
1488.49204 650.197
1488.54166 658.596
1488.59128 52964.9
1488.6409 52555
1488.69052 626.946
1488.74015 844824
1488.78977 844088
1488.8394 611.593
1488.88903 634.014
1488.93866 674.363
1488.98829 650.792
1489.03792 572.422
1489.08756 600.249
1489.1372 689.448
1489.18684 698.373
1489.23648 707.613
1489.28612 710.172
1489.33576 703.274
1489.38541 684.872
1489.43505 629.909
1489.4847 697.134
1489.53435 690.797
1489.58401 637.83
1489.63366 350.314
1489.68331 52.0669
1489.73297 385.809
1489.78263 664.546
1489.83229 713.231
1489.88195 698.227
1489.93162 643.56
1489.98128 735.425
1490.03095 729.811
1490.08062 763.623
1490.13029 771.132
1490.17996 773.138
1490.22963 764.04
1490.27931 770.855
1490.32898 787.159
1490.37866 789.999
1490.42834 794.086
1490.47802 798.566
1490.52771 800.898
1490.57739 790.883
1490.62708 760.872
1490.67677 796.761
1490.72646 813.594
1490.77615 817.547
1490.82584 101655
1490.87554 813.083
1490.92523 759.23
1490.97493 101259
1491.02463 831.929
1491.07433 835.473
1491.12404 837.888
1491.17374 839.505
1491.22345 838.012
1491.27316 829.452
1491.32287 798.005
1491.37258 580.171
1491.42229 137.441
1491.47201 392.539
1491.52172 348.897
1491.57144 735.546
1491.62116 846.044
1491.67088 861.909
1491.72061 863.849
1491.77033 851.578
1491.82006 854.758
1491.86979 784.575
1491.91952 856.95
1491.96925 813.595
1492.01898 735.317
1492.06872 750.26
1492.11845 673.483
1492.16819 871.736
1492.21793 895.733
1492.26767 910.273
1492.31741 907.234
1492.36716 903.895
1492.41691 883.161
1492.46665 882.92
1492.5164 681.192
1492.56615 875.62
1492.61591 933.917
1492.66566 942.401
1492.71542 941.595
1492.76518 879.654
1492.81494 752.92
1492.8647 851.898
1492.91446 732.485
1492.96422 812.773
1493.01399 914.904
1493.06376 961.673
1493.11353 973.647
1493.1633 307739
1493.21307 306630
1493.26285 806.028
1493.31262 874.132
1493.3624 966.377
1493.41218 962.397
1493.46196 1000.68
1493.51175 1008.32
1493.56153 1010.77
1493.61132 1016.33
1493.6611 1018.42
1493.71089 1022.2
1493.76068 1017.58
1493.81048 1020.21
1493.86027 1015.14
1493.91007 1005.2
1493.95987 980.187
1494.00967 739.686
1494.05947 938.353
1494.10927 862.879
1494.15907 954.791
1494.20888 1046.35
1494.25869 1049.62
1494.3085 1047.21
1494.35831 970.382
1494.40812 835.45
1494.45794 1031.67
1494.50775 1064.78
1494.55757 1076.93
1494.60739 1081.29
1494.65721 1082.49
1494.70703 1086.12
1494.75686 1085.17
1494.80668 1082.8
1494.85651 1060.19
1494.90634 847.504
1494.95617 597.314
1495.006 1012.51
1495.05584 1077.43
1495.10567 1040.72
1495.15551 619.376
1495.20535 1010.97
1495.25519 1107.12
1495.30504 1103.02
1495.35488 974.343
1495.40473 1052.51
1495.45457 1129.62
1495.50442 1136.35
1495.55427 1187.2
1495.60413 1116.6
1495.65398 1127.93
1495.70384 1104.77
1495.75369 870.977
1495.80355 487.652
1495.85341 1062.23
1495.90328 1133.77
1495.95314 1142.4
1496.00301 1166.27
1496.05287 1178.37
1496.10274 1183.67
1496.15262 1183.87
1496.20249 1185.69
1496.25236 1187.63
1496.30224 1138.67
1496.35212 1146.82
1496.40199 1134.69
1496.45188 1031
1496.50176 642.621
1496.55164 403.622
1496.60153 945.434
1496.65142 1186.65
1496.7013 1214.22
1496.7512 1220.77
1496.80109 1223.08
1496.85098 1231.12
1496.90088 1223.17
1496.95078 1239.28
1497.00068 1249.93
1497.05058 1250.87
1497.10048 1248.53
1497.15038 1248.17
1497.20029 1243.4
1497.2502 1234.79
1497.30011 1249.12
1497.35002 1250.9
1497.39993 1253.44
1497.44984 1251.62
1497.49976 1248.09
1497.54968 1206.04
1497.5996 879.077
1497.64952 1155.7
1497.69944 1237.86
1497.74936 1253.07
1497.79929 1257.24
1497.84922 1255.56
1497.89915 1248.91
1497.94908 1228.04
1497.99901 1045.44
1498.04894 1032
1498.09888 596.107
1498.14882 1015.47
1498.19875 1213.23
1498.2487 1240.2
1498.29864 1259.38
1498.34858 1265.07
1498.39853 1269.09
1498.44848 1267.93
1498.49842 1262.38
1498.54838 1086.6
1498.59833 1122.23
1498.64828 1270.93
1498.69824 1276.4
1498.7482 1276.56
1498.79815 1262.74
1498.84811 1229.26
1498.89808 1272.62
1498.94804 1259.97
1498.99801 1260.2
1499.04797 1271.2
1499.09794 1214.33
1499.14791 928.681
1499.19789 1211.84
1499.24786 1255.31
1499.29784 1203.54
1499.34781 1236.65
1499.39779 1283.52
1499.44777 1287.12
1499.49776 1281.54
1499.54774 1274.99
1499.59773 1281.72
1499.64771 1249.08
1499.6977 985.673
1499.74769 1075.45
1499.79769 1183.24
1499.84768 1277.85
1499.89768 1271.32
1499.94767 1291.04
1499.99767 1297.48
1500.04767 1298
1500.09768 1301.4
1500.14768 1303.04
1500.19769 1302.9
1500.24769 1304.58
1500.2977 1305.99
1500.34771 1306.8
1500.39773 1307.27
1500.44774 1307.93
1500.49776 1308.31
1500.54777 1308
1500.59779 2429.36
1500.64781 14071
1500.69783 10300.8
1500.74786 4887.66
1500.79788 1279.06
1500.84791 1308.83
1500.89794 1312.9
1500.94797 1312.87
1500.998 1304.98
1501.04804 1296.11
1501.09807 1315.23
1501.14811 1316.55
1501.19815 1308.32
1501.24819 1221.36
1501.29823 1283.65
1501.34828 1309.66
1501.39832 1319.72
1501.44837 1322.28
1501.49842 1322.94
1501.54847 1314.05
1501.59852 1305.91
1501.64858 1316.88
1501.69863 1323.46
1501.74869 1313.15
1501.79875 1072.4
1501.84881 948.043
1501.89887 1073.8
1501.94894 1315.29
1501.999 1319.76
1502.04907 1327.11
1502.09914 1331.57
