# Obtained using Skycalc tool from ESO webpage
# Not including telescope emissivity
Wave[nm] Radiance[photons/s/m**2/micron/arsec**2]
1550 7127.64
1550.02919 53750.8
1550.05839 113032
1550.08759 106418
1550.11678 113018
1550.14598 53763.4
1550.17518 7311.5
1550.20438 909.405
1550.23357 704.295
1550.26277 702.333
1550.29197 701.942
1550.32117 701.539
1550.35037 701.127
1550.37958 700.71
1550.40878 700.288
1550.43798 699.863
1550.46718 699.43
1550.49639 698.941
1550.52559 698.242
1550.5548 697.255
1550.584 696.416
1550.61321 696.059
1550.64241 695.951
1550.67162 695.994
1550.70083 695.81
1550.73004 695.518
1550.75925 695.217
1550.78845 694.791
1550.81766 694.164
1550.84687 696.439
1550.87609 1079.1
1550.9053 13336.9
1550.93451 111062
1550.96372 295156
1550.99293 295373
1551.02215 111251
1551.05136 13359.8
1551.08058 1075.15
1551.10979 691.406
1551.13901 688.735
1551.16822 688.639
1551.19744 688.391
1551.22666 688.316
1551.25588 688.198
1551.2851 687.901
1551.31431 687.508
1551.34353 687.066
1551.37275 686.561
1551.40197 685.979
1551.4312 685.498
1551.46042 685.245
1551.48964 684.916
1551.51886 684.373
1551.54809 683.662
1551.57731 682.893
1551.60654 682.387
1551.63576 682.18
1551.66499 683.711
1551.69421 821.45
1551.72344 4384.83
1551.75267 31108.5
1551.78189 80794.3
1551.81112 80863.7
1551.84035 30816.4
1551.86958 4135.92
1551.89881 784.737
1551.92804 679.446
1551.95727 677.803
1551.98651 676.074
1552.01574 672.365
1552.04497 668.453
1552.0742 669.414
1552.10344 673.015
1552.13267 674.794
1552.16191 674.837
1552.19114 674.217
1552.22038 673.66
1552.24962 673.627
1552.27885 673.618
1552.30809 673.298
1552.33733 672.902
1552.36657 672.617
1552.39581 672.305
1552.42505 671.923
1552.45429 671.506
1552.48353 671.071
1552.51277 670.653
1552.54201 670.238
1552.57126 669.726
1552.6005 668.924
1552.62974 667.869
1552.65899 667.338
1552.68823 667.573
1552.71748 667.651
1552.74672 667.376
1552.77597 666.985
1552.80522 666.539
1552.83447 666.048
1552.86371 665.586
1552.89296 665.207
1552.92221 664.883
1552.95146 664.507
1552.98071 664.077
1553.00996 663.661
1553.03921 663.25
1553.06847 662.759
1553.09772 662.035
1553.12697 661.096
1553.15623 660.512
1553.18548 660.542
1553.21474 660.584
1553.24399 660.359
1553.27325 659.995
1553.3025 659.582
1553.33176 659.163
1553.36102 658.769
1553.39028 658.376
1553.41954 657.971
1553.44879 657.554
1553.47805 657.114
1553.50731 656.673
1553.53658 656.281
1553.56584 655.897
1553.5951 655.479
1553.62436 655.005
1553.65363 654.508
1553.68289 654.104
1553.71215 653.762
1553.74142 653.344
1553.77068 652.829
1553.79995 652.349
1553.82922 652.008
1553.85848 658.106
1553.88775 1470.85
1553.91702 26874.8
1553.94629 210441
1553.97556 420237
1554.00483 211259
1554.0341 53088.9
1554.06337 211195
1554.09264 420108
1554.12191 210374
1554.15118 26862
1554.18046 1464.59
1554.20973 651.265
1554.239 643.826
1554.26828 642.664
1554.29755 643.013
1554.32683 644.038
1554.35611 644.395
1554.38538 644.219
1554.41466 643.886
1554.44394 643.504
1554.47322 647.546
1554.5025 1211.51
1554.53178 18849.8
1554.56106 146857
1554.59034 310240
1554.61962 291588
1554.6489 308707
1554.67818 146041
1554.70747 18744.8
1554.73675 1209.91
1554.76603 823.066
1554.79532 2081.98
1554.8246 3525.77
1554.85389 2081.61
1554.88318 817.833
1554.91246 642.58
1554.94175 636.534
1554.97104 635.975
1555.00033 635.469
1555.02961 635.086
1555.0589 634.765
1555.08819 634.438
1555.11749 634.068
1555.14678 633.656
1555.17607 633.189
1555.20536 632.593
1555.23465 632.002
1555.26395 631.722
1555.29324 631.521
1555.32254 631.198
1555.35183 630.808
1555.38113 630.402
1555.41042 629.994
1555.43972 629.583
1555.46902 629.173
1555.49831 628.761
1555.52761 628.349
1555.55691 627.935
1555.58621 627.521
1555.61551 627.109
1555.64481 626.7
1555.67411 626.29
1555.70342 625.877
1555.73272 625.464
1555.76202 625.05
1555.79132 624.64
1555.82063 624.229
1555.84993 623.818
1555.87924 623.404
1555.90854 622.98
1555.93785 622.505
1555.96716 622.022
1555.99646 621.67
1556.02577 621.321
1556.05508 620.92
1556.08439 620.502
1556.1137 620.076
1556.14301 619.634
1556.17232 619.337
1556.20163 620.274
1556.23094 621.519
1556.26025 619.519
1556.28957 617.539
1556.31888 616.646
1556.34819 616.194
1556.37751 616.164
1556.40682 616.991
1556.43614 618.219
1556.46546 617.226
1556.49477 615.356
1556.52409 614.385
1556.55341 613.916
1556.58272 613.506
1556.61204 613.094
1556.64136 612.676
1556.67068 612.258
1556.7 611.848
1556.72932 611.438
1556.75865 611.017
1556.78797 610.557
1556.81729 609.942
1556.84661 609.238
1556.87594 610.333
1556.90526 797.907
1556.93459 6916.68
1556.96391 59226.8
1556.99324 183069
1557.02257 222285
1557.05189 93540
1557.08122 11663.6
1557.11055 947.235
1557.13988 608.319
1557.16921 605.247
1557.19854 604.814
1557.22787 604.381
1557.2572 604.203
1557.28653 605.699
1557.31586 607.448
1557.3452 604.685
1557.37453 602.385
1557.40386 611.809
1557.4332 925.641
1557.46253 3195.27
1557.49187 5789.13
1557.5212 3194.51
1557.55054 924.17
1557.57988 609.89
1557.60921 601.521
1557.63855 603.457
1557.66789 600.653
1557.69723 598.138
1557.72657 597.43
1557.75591 596.989
1557.78525 596.557
1557.81459 596.161
1557.84394 595.767
1557.87328 595.359
1557.90262 594.943
1557.93196 594.514
1557.96131 594.076
1557.99065 593.659
1558.02 593.248
1558.04935 592.77
1558.07869 592.07
1558.10804 591.214
1558.13739 590.773
1558.16673 590.737
1558.19608 590.584
1558.22543 590.235
1558.25478 589.872
1558.28413 589.516
1558.31348 589.127
1558.34283 588.708
1558.37219 588.304
1558.40154 587.912
1558.43089 587.509
1558.46025 587.093
1558.4896 586.663
1558.51896 586.199
1558.54831 585.718
1558.57767 585.29
1558.60702 584.929
1558.63638 584.557
1558.66574 584.126
1558.6951 583.561
1558.72445 582.62
1558.75381 581.393
1558.78317 580.875
1558.81253 581.231
1558.84189 581.383
1558.87126 581.101
1558.90062 580.725
1558.92998 580.375
1558.95934 580.025
1558.98871 579.641
1559.01807 579.22
1559.04744 578.771
1559.0768 578.313
1559.10617 577.882
1559.13553 577.511
1559.1649 577.153
1559.19427 576.76
1559.22364 576.334
1559.253 575.884
1559.28237 575.379
1559.31174 574.694
1559.34111 574.018
1559.37048 573.824
1559.39986 573.686
1559.42923 573.362
1559.4586 572.958
1559.48797 572.496
1559.51735 572.019
1559.54672 571.617
1559.5761 571.278
1559.60547 570.907
1559.63485 579.342
1559.66422 1712.25
1559.6936 37957
1559.72298 326796
1559.75236 870251
1559.78173 869892
1559.81111 326476
1559.84049 37907.4
1559.86987 1707.52
1559.89925 575.648
1559.92864 566.412
1559.95802 566.007
1559.9874 565.568
1560.01678 565.008
1560.04617 564.176
1560.07555 563.496
1560.10494 579.823
1560.13432 1095.82
1560.16371 4823.77
1560.19309 9084.14
1560.22248 4823.02
1560.25187 1094.47
1560.28125 578.098
1560.31064 561.14
1560.34003 560.506
1560.36942 559.984
1560.39881 559.615
1560.4282 559.331
1560.45759 558.979
1560.48699 558.572
1560.51638 558.171
1560.54577 557.769
1560.57516 557.356
1560.60456 556.935
1560.63395 556.501
1560.66335 556.046
1560.69274 555.578
1560.72214 555.144
1560.75154 554.642
1560.78093 553.98
1560.81033 553.346
1560.83973 552.68
1560.86913 551.912
1560.89853 551.711
1560.92793 551.872
1560.95733 551.792
1560.98673 551.478
1561.01613 551.089
1561.04554 550.688
1561.07494 550.285
1561.10434 549.885
1561.13375 549.483
1561.16315 549.06
1561.19256 548.579
1561.22196 548.022
1561.25137 547.501
1561.28078 547.142
1561.31018 546.845
1561.33959 546.444
1561.369 545.988
1561.39841 545.655
1561.42782 545.334
1561.45723 544.951
1561.48664 544.542
1561.51605 544.132
1561.54546 543.722
1561.57487 543.311
1561.60429 542.897
1561.6337 542.483
1561.66311 542.067
1561.69253 541.652
1561.72194 541.239
1561.75136 540.823
1561.78078 540.404
1561.81019 539.993
1561.83961 539.581
1561.86903 539.164
1561.89845 538.746
1561.92787 538.33
1561.95728 537.911
1561.9867 537.481
1562.01613 537.042
1562.04555 536.609
1562.07497 536.183
1562.10439 535.727
1562.13381 535.174
1562.16324 534.25
1562.19266 532.403
1562.22209 530.543
1562.25151 530.891
1562.28094 532.055
1562.31036 532.451
1562.33979 532.229
1562.36922 531.62
1562.39864 530.283
1562.42807 528.581
1562.4575 528.337
1562.48693 529.185
1562.51636 529.59
1562.54579 529.455
1562.57522 529.137
1562.60465 528.756
1562.63409 528.339
1562.66352 527.913
1562.69295 527.499
1562.72239 527.062
1562.75182 526.608
1562.78126 526.393
1562.81069 550.654
1562.84013 1321.76
1562.86957 6896.95
1562.899 13268.7
1562.92844 6895.46
1562.95788 1318.53
1562.98732 547.449
1563.01676 666.753
1563.0462 5160.65
1563.07564 38639.3
1563.10508 109064
1563.13452 313258
1563.16396 556543
1563.19341 276361
1563.22285 34983
1563.25229 1596.5
1563.28174 527.658
1563.31118 518.867
1563.34063 518.464
1563.37007 518.054
1563.39952 517.643
1563.42897 517.232
1563.45842 516.819
1563.48787 516.404
1563.51731 515.989
1563.54676 515.573
1563.57621 515.156
1563.60566 514.741
1563.63512 514.324
1563.66457 513.903
1563.69402 513.478
1563.72347 513.041
1563.75293 512.571
1563.78238 511.975
1563.81183 511.006
1563.84129 509.867
1563.87074 509.555
1563.9002 509.898
1563.92966 509.956
1563.95911 509.673
1563.98857 509.289
1564.01803 508.889
1564.04749 508.487
1564.07695 508.074
1564.10641 507.635
1564.13587 507.112
1564.16533 506.348
1564.19479 505.457
1564.22425 505.05
1564.25372 505.01
1564.28318 504.75
1564.31264 504.285
1564.34211 503.481
1564.37157 502.015
1564.40104 500.832
1564.43051 501.152
1564.45997 501.898
1564.48944 502.041
1564.51891 501.787
1564.54838 501.428
1564.57784 501.038
1564.60731 500.638
1564.63678 500.232
1564.66625 499.823
1564.69573 499.412
1564.7252 498.998
1564.75467 498.583
1564.78414 498.172
1564.81362 497.761
1564.84309 497.348
1564.87256 496.934
1564.90204 496.519
1564.93152 496.105
1564.96099 495.689
1564.99047 495.27
1565.01995 494.851
1565.04942 494.435
1565.0789 494.011
1565.10838 493.558
1565.13786 493.046
1565.16734 492.54
1565.19682 492.174
1565.2263 491.856
1565.25578 491.47
1565.28527 490.993
1565.31475 490.36
1565.34423 489.651
1565.37372 504.316
1565.4032 2417.54
1565.43268 62809.5
1565.46217 520447
1565.49166 1.21248e+06
1565.52114 951015
1565.55063 300427
1565.58012 104142
1565.60961 154012
1565.6391 89835.2
1565.66858 18180.3
1565.69807 2356.17
1565.72757 11121.3
1565.75706 74260.4
1565.78655 142522
1565.81604 70813.2
1565.84553 9252.05
1565.87503 755.077
1565.90452 482.894
1565.93401 480.985
1565.96351 481
1565.99301 480.621
1566.0225 480.156
1566.052 479.514
1566.0815 478.74
1566.11099 478.579
1566.14049 478.625
1566.16999 478.42
1566.19949 478.092
1566.22899 477.659
1566.25849 477.198
1566.28799 476.806
1566.31749 476.463
1566.347 476.08
1566.3765 475.582
1566.406 475.039
1566.43551 474.608
1566.46501 474.259
1566.49451 473.945
1566.52402 478.419
1566.55353 631.478
1566.58303 1740.08
1566.61254 3007.02
1566.64205 1739.07
1566.67156 629.53
1566.70107 475.802
1566.73057 470.605
1566.76008 470.111
1566.7896 469.629
1566.81911 469.034
1566.84862 468.327
1566.87813 467.565
1566.90764 466.911
1566.93716 466.784
1566.96667 466.826
1566.99618 466.71
1567.0257 466.765
1567.05522 471.999
1567.08473 638.567
1567.11425 1844.88
1567.14377 3223.76
1567.17328 1844.66
1567.2028 638.525
1567.23232 472.313
1567.26184 467.315
1567.29136 467.125
1567.32088 466.685
1567.3504 466.527
1567.37992 467.05
1567.40945 467.338
1567.43897 467.007
1567.46849 466.846
1567.49802 467.012
1567.52754 466.791
1567.55707 466.674
1567.58659 466.806
1567.61612 467.138
1567.64564 467.63
1567.67517 467.674
1567.7047 466.544
1567.73423 465.382
1567.76376 466.32
1567.79329 467.429
1567.82282 467.618
1567.85235 476.682
1567.88188 767.434
1567.91141 2875.55
1567.94094 5287.59
1567.97047 2878.54
1568.00001 769.336
1568.02954 477.025
1568.05908 467.307
1568.08861 465.92
1568.11815 464.71
1568.14768 466.235
1568.17722 468.483
1568.20676 469.45
1568.23629 469.54
1568.26583 469.089
1568.29537 507.739
1568.32491 1802.1
1568.35445 11192.1
1568.38399 22223.7
1568.41353 13747.6
1568.44307 7038.42
1568.47262 3346.82
1568.50216 933.533
1568.5317 493.075
1568.56125 462.688
1568.59079 463.448
1568.62034 465.393
1568.64988 468.056
1568.67943 469.71
1568.70897 469.262
1568.73852 465.408
1568.76807 460.006
1568.79762 461.493
1568.82717 466.859
1568.85672 469.025
1568.88627 467.864
1568.91582 466.714
1568.94537 466.945
1568.97492 462.642
1569.00447 455.633
1569.03403 458.735
1569.06358 466.165
1569.09313 469.899
1569.12269 470.583
1569.15224 471.38
1569.1818 539.99
1569.21135 1371.69
1569.24091 4840.09
1569.27047 7774.82
1569.30003 3942.84
1569.32958 899.473
1569.35914 484.809
1569.3887 471.137
1569.41826 468.78
1569.44782 459.478
1569.47738 444.61
1569.50695 444.44
1569.53651 457.642
1569.56607 467.266
1569.59564 470.865
1569.6252 471.824
1569.65476 471.547
1569.68433 485.628
1569.71389 1033.45
1569.74346 5093.67
1569.77303 9767.43
1569.80259 5123.48
1569.83216 1051.08
1569.86173 487.518
1569.8913 470.046
1569.92087 470.126
1569.95044 464.282
1569.98001 443.002
1570.00958 425.407
1570.03915 445.94
1570.06873 464.857
1570.0983 468.868
1570.12787 474.313
1570.15745 1005.89
1570.18702 17888.3
1570.2166 148683
1570.24617 367747
1570.27575 325800
1570.30532 111978
1570.3349 12808.5
1570.36448 844.223
1570.39406 473.61
1570.42364 469.78
1570.45322 469.196
1570.4828 459.852
1570.51238 459.008
1570.54196 1252.43
1570.57154 7155.94
1570.60112 13912.2
1570.63071 7197.66
1570.66029 1313.67
1570.68987 498.714
1570.71946 470.489
1570.74904 464.325
1570.77863 441.527
1570.80821 406.204
1570.8378 409.489
1570.86739 442.793
1570.89698 465.14
1570.92657 472.18
1570.95615 473.69
1570.98574 473.762
1571.01533 484.453
1571.04492 865.538
1571.07452 3696.08
1571.10411 8304.94
1571.1337 15332.7
1571.16329 24204.9
1571.19289 12149.2
1571.22248 1929.45
1571.25208 518.39
1571.28167 474.076
1571.31127 472.024
1571.34086 460.904
1571.37046 424.651
1571.40006 384.921
1571.42965 402.548
1571.45925 446.867
1571.48885 468.204
1571.51845 472.185
1571.54805 472.171
1571.57765 471.742
1571.60725 471.55
1571.63686 464.097
1571.66646 431.215
1571.69606 384.218
1571.72567 389.703
1571.75527 435.896
1571.78487 464.669
1571.81448 473.252
1571.84408 512.794
1571.87369 1684.26
1571.9033 10147.4
1571.93291 19817
1571.96251 10125.8
1571.99212 1610.45
1572.02173 400.512
1572.05134 412.935
1572.08095 459.613
1572.11056 471.419
1572.14017 474.038
1572.16979 475.525
1572.1994 475.772
1572.22901 474.027
1572.25862 466.204
1572.28824 437.278
1572.31785 385.472
1572.34747 372.597
1572.37708 478.324
1572.4067 1958.8
1572.43632 11949.6
1572.46593 23184.1
1572.49555 11799.7
1572.52517 1890.64
1572.55479 519.108
1572.58441 466.858
1572.61403 430.388
1572.64365 375.719
1572.67327 379.915
1572.70289 432.289
1572.73252 466.063
1572.76214 475.464
1572.79176 477.397
1572.82139 477.611
1572.85101 477.204
1572.88064 476.272
1572.91026 471.557
1572.93989 449.017
1572.96952 395.698
1572.99914 366.143
1573.02877 416.382
1573.0584 462.058
1573.08803 475.188
1573.11766 478.174
1573.14729 479.041
1573.17692 479.464
1573.20655 524.116
1573.23618 1943.56
1573.26582 12209.9
1573.29545 23915.5
1573.32508 12121.6
1573.35472 1866.34
1573.38435 494.606
1573.41399 472.991
1573.44362 478.258
1573.47326 479.731
1573.5029 480.142
1573.53254 479.958
1573.56217 479.078
1573.59181 475.286
1573.62145 457.946
1573.65109 412.539
1573.68073 380.367
1573.71037 476.375
1573.74001 2305.97
1573.76966 15278.9
1573.7993 30495.4
1573.82894 16311
1573.85859 2918.18
1573.88823 2123.48
1573.91787 12613.4
1573.94752 24737.8
1573.97717 12592.5
1574.00681 1938.93
1574.03646 440.952
1574.06611 427.768
1574.09576 466.175
1574.1254 479.217
1574.15505 481.859
1574.1847 482.194
1574.21435 481.756
1574.244 481.627
1574.27366 481.668
1574.30331 480.19
1574.33296 470.768
1574.36261 444.038
1574.39227 417.87
1574.42192 430.509
1574.45158 462.348
1574.48123 478.912
1574.51089 482.983
1574.54055 483.958
1574.5702 484.508
1574.59986 540.46
1574.62952 2306.04
1574.65918 15069.9
1574.68884 29656.2
1574.7185 15058.5
1574.74816 2271.44
1574.77782 494.718
1574.80748 461.03
1574.83714 478.149
1574.8668 483.023
1574.89647 484.901
1574.92613 485.675
1574.9558 485.943
1574.98546 485.872
1575.01513 485.147
1575.04479 483.814
1575.07446 483.61
1575.10413 573.172
1575.13379 2947.25
1575.16346 19109.5
1575.19313 37163.5
1575.2228 18751.2
1575.25247 2764.91
1575.28214 556.54
1575.31181 487.238
1575.34148 487.178
1575.37116 487.254
1575.40083 486.932
1575.4305 486.177
1575.46018 485.228
1575.48985 484.868
1575.51952 486.225
1575.5492 487.133
1575.57888 487.054
1575.60855 486.615
1575.63823 484.616
1575.66791 478.121
1575.69759 463.974
1575.72727 453.853
1575.75694 467.46
1575.78662 481.369
1575.81631 485.544
1575.84599 486.605
1575.87567 487.228
1575.90535 548.21
1575.93503 1948.58
1575.96472 11127.5
1575.9944 22922.2
1576.02409 26275.4
1576.05377 40636.4
1576.08346 35482.3
1576.11314 12573.8
1576.14283 1793.89
1576.17252 513.092
1576.2022 484.909
1576.23189 487.386
1576.26158 487.91
1576.29127 487.797
1576.32096 486.77
1576.35065 485.618
1576.38034 486.682
1576.41003 487.299
1576.43973 485.328
1576.46942 546.979
1576.49911 2846.43
1576.52881 19686.3
1576.5585 38990
1576.5882 19748.5
1576.61789 2894.83
1576.64759 563.901
1576.67729 535.012
1576.70698 1940.95
1576.73668 12102
1576.76638 23713.4
1576.79608 12098.8
1576.82578 1937.55
1576.85548 527.97
1576.88518 462.141
1576.91488 419.639
1576.94458 402.529
1576.97428 436.036
1577.00399 471.401
1577.03369 485.303
1577.06339 488.812
1577.0931 489.85
1577.1228 490.278
1577.15251 490.401
1577.18222 490.15
1577.21192 488.885
1577.24163 486.498
1577.27134 482.595
1577.30105 464.998
1577.33076 421.023
1577.36047 396.461
1577.39018 608.145
1577.41989 2933.3
1577.4496 13391.1
1577.47931 22888.1
1577.50902 11263.2
1577.53874 1824.41
1577.56845 532.93
1577.59816 491.612
1577.62788 490.769
1577.65759 489.501
1577.68731 486.249
1577.71703 475.802
1577.74674 443.494
1577.77646 395.852
1577.80618 396.447
1577.8359 448.287
1577.86562 555.283
1577.89534 2916.01
1577.92506 19918.7
1577.95478 39348.3
1577.9845 19921.1
1578.01422 2987.59
1578.04394 2702.59
1578.07367 17721.6
1578.10339 36187.8
1578.13311 20813.5
1578.16284 4250.12
1578.19256 693.608
1578.22229 456.517
1578.25202 2742.17
1578.28174 19054.4
1578.31147 37656.3
1578.3412 19074.8
1578.37093 2814.68
1578.40066 565.273
1578.43039 493.577
1578.46012 493.072
1578.48985 493.123
1578.51958 492.93
1578.54931 491.921
1578.57904 488.209
1578.60878 471.627
1578.63851 420.026
1578.66825 376.268
1578.69798 422.984
1578.72772 472.101
1578.75745 486.93
1578.78719 513.117
1578.81693 1220.76
1578.84666 6322.06
1578.8764 12151.6
1578.90614 6324.19
1578.93588 1223.88
1578.96562 517.303
1578.99536 493.743
1579.0251 490.701
1579.05484 477.661
1579.08458 429.73
1579.11433 380.807
1579.14407 420.98
1579.17381 471.663
1579.20356 489.149
1579.2333 493.521
1579.26305 561.096
1579.2928 2653.21
1579.32254 17764.6
1579.35229 35034
1579.38204 17765
1579.41179 2654.49
1579.44153 562.794
1579.47128 494.265
1579.50103 486.734
1579.53078 456.261
1579.56054 406.291
1579.59029 405.71
1579.62004 455.282
1579.64979 485.807
1579.67955 493.229
1579.7093 495.108
1579.73905 495.494
1579.76881 496.191
1579.79856 496.983
1579.82832 497.268
1579.85808 497.085
1579.88783 496.577
1579.91759 495.849
1579.94735 493.705
1579.97711 482.983
1580.00687 442.481
1580.03663 399.69
1580.06639 432.631
1580.09615 477.157
1580.12591 492.468
1580.15567 496.688
1580.18544 551.957
1580.2152 1623.31
1580.24497 9343.74
1580.27473 28296.6
1580.30449 46663.5
1580.33426 51584.9
1580.36403 40938.3
1580.39379 27815.5
1580.42356 21908.4
1580.45333 13969.6
1580.4831 11920.6
1580.51287 7704.82
1580.54264 5411.73
1580.57241 2874.78
1580.60218 2100.75
1580.63195 2989.05
1580.66172 1716.65
1580.69149 710.278
1580.72127 2500.14
1580.75104 18855.7
1580.78081 58276.1
1580.81059 89355.8
1580.84036 94321.7
1580.87014 86179.9
1580.89992 61080.4
1580.92969 32533.8
1580.95947 27524.1
1580.98925 19747.6
1581.01903 17054.5
1581.04881 12282.7
1581.07858 10372.6
1581.10837 5301.02
1581.13815 3415.53
1581.16793 5232.42
1581.19771 2996.25
